DTS Sentinel unit serial number:	SN214307Multiplexer serial number:	SNM14295Hardware model number:	SEN2LRSoftware version number:	Sentinel DTS v5.1data status	okinstallation	All Channels Greendifferential loss correction	combinedforward channel	channel 7reverse channel	channel 7 reversedate	2018/01/01time	01:46:42forward acquisition time	599.87reverse acquisition time	599.99gamma	516.3409k internal	0.2622k external	0.2622temperature offset calibration	1.0000default loss term (dB/km)	0.2634temperature slope calibration	NaNmultiplexer offset coefficient	1.0000multiplexer slope coefficient	1.0000fibre end	2030.54T internal ref (°C)	26.07T ext. ref 1 (°C)	12.80T ext. ref 2 (°C)	32.60length (m)	temperature (°C)	forward Stokes	forward anti-Stokes	reverse Stokes	reverse anti-Stokes-293.990	154.778	-0.197	0.103	0.109	-0.100
-292.970	138.164	-0.191	0.090	0.083	0.073
-291.950	-200.000	-0.005	-0.153	-0.041	-0.024
-290.930	654.651	0.080	0.153	0.059	-0.089
-289.910	194.282	0.029	-0.018	0.143	-0.313
-288.890	62.288	0.096	-0.026	0.101	0.082
-287.870	165.656	0.024	0.013	0.080	0.118
-286.850	558.103	0.064	0.107	-0.062	0.063
-285.830	428.536	-0.034	0.045	0.050	-0.112
-284.810	800.000	-0.009	-0.049	-0.095	0.072
-283.790	278.612	0.070	-0.063	0.141	-0.159
-282.770	120.838	-0.065	-0.028	0.012	0.029
-281.750	-200.000	0.007	0.072	0.108	-0.016
-280.730	458.703	-0.041	0.058	-0.099	-0.069
-279.710	800.000	0.040	0.144	-0.033	0.102
-278.690	117.961	0.110	-0.046	-0.099	0.037
-277.670	800.000	0.068	-0.219	0.200	-0.030
-276.650	-200.000	0.021	0.157	-0.132	0.011
-275.630	426.460	0.044	-0.059	-0.010	0.037
-274.610	-100.702	0.068	-0.001	0.079	0.001
-273.590	569.536	-0.029	-0.050	-0.061	-0.060
-272.570	800.000	-0.023	0.115	0.062	-0.017
-271.550	718.834	-0.060	0.123	0.132	0.047
-270.530	754.349	-0.024	0.050	-0.066	0.117
-269.510	755.106	-0.006	-0.013	-0.048	-0.024
-268.491	110.294	0.084	-0.033	-0.100	0.071
-267.471	800.000	0.055	0.125	0.010	-0.044
-266.451	426.636	-0.032	-0.042	-0.050	0.022
-265.431	69.908	0.113	-0.032	-0.106	-0.056
-264.411	800.000	0.055	-0.280	0.028	-0.076
-263.391	33.450	-0.144	0.029	-0.037	-0.144
-262.371	486.948	-0.110	-0.164	0.018	0.094
-261.351	256.047	-0.078	-0.064	0.031	0.075
-260.331	800.000	-0.026	-0.083	-0.019	-0.066
-259.311	236.936	0.050	0.038	0.079	0.106
-258.291	156.722	0.137	0.072	0.125	0.051
-257.271	-200.000	-0.021	0.179	-0.129	-0.073
-256.251	165.310	0.058	0.032	-0.045	-0.015
-255.231	-7.633	0.153	-0.018	0.112	-0.010
-254.211	334.252	0.031	-0.033	0.052	-0.009
-253.191	-200.000	-0.005	-0.037	-0.159	0.058
-252.171	800.000	0.031	0.110	-0.086	-0.218
-251.151	659.138	0.067	-0.128	0.008	-0.020
-250.131	650.936	-0.051	0.097	0.165	-0.052
-249.111	535.326	0.151	-0.245	0.145	0.041
-248.091	230.339	0.092	-0.069	-0.082	-0.076
-247.071	652.712	-0.047	-0.089	-0.032	0.171
-246.051	800.000	0.012	0.043	0.043	-0.222
-245.031	800.000	-0.100	0.259	0.036	0.033
-244.011	186.900	-0.112	0.069	0.147	-0.152
-242.991	466.621	0.090	0.130	0.024	-0.014
-241.971	-200.000	-0.000	-0.018	-0.216	0.067
-240.951	137.506	0.054	0.025	0.093	0.011
-239.931	137.352	-0.255	0.120	0.101	-0.016
-238.911	800.000	-0.015	-0.052	0.043	-0.167
-237.891	504.838	0.036	0.056	-0.135	0.225
-236.871	151.466	-0.023	0.012	0.033	0.068
-235.851	-123.831	-0.092	0.001	0.062	0.055
-234.831	86.985	-0.201	-0.066	0.033	0.068
-233.811	150.932	-0.081	0.042	-0.083	0.042
-232.791	800.000	0.039	-0.174	-0.103	-0.057
-231.771	181.852	0.092	-0.055	-0.022	0.092
-230.751	405.489	-0.086	0.109	-0.095	-0.047
-229.731	61.460	0.108	-0.029	0.021	0.081
-228.711	1.798	0.217	-0.030	0.083	0.178
-227.691	60.186	0.175	0.046	-0.060	-0.152
-226.671	800.000	0.093	0.304	0.068	0.060
-225.651	-200.000	0.027	0.169	0.108	0.149
-224.631	378.206	0.445	0.530	0.335	0.476
-223.611	127.957	19.157	8.499	18.924	8.735
-222.591	390.806	71.061	87.365	70.098	88.927
-221.571	500.532	56.478	86.573	56.056	88.494
-220.551	439.792	10.738	14.691	10.562	14.734
-219.531	426.459	5.869	7.811	6.032	8.103
-218.511	429.465	0.810	1.085	0.611	1.235
-217.492	130.296	0.472	0.213	0.463	0.215
-216.472	800.000	0.053	-0.232	-0.038	-0.018
-215.452	461.026	0.185	0.263	0.038	0.123
-214.432	-200.000	0.022	0.143	-0.054	-0.108
-213.412	416.329	-0.099	-0.129	-0.067	0.066
-212.392	231.079	0.023	-0.017	-0.057	-0.066
-211.372	193.603	-0.068	0.044	-0.032	0.018
-210.352	-200.000	-0.003	0.075	-0.257	0.073
-209.332	-200.000	0.006	0.104	0.002	0.108
-208.312	-56.414	0.073	-0.004	-0.011	0.136
-207.292	445.882	-0.064	0.088	-0.033	0.173
-206.272	219.774	0.215	0.154	0.136	-0.131
-205.252	800.000	0.030	0.112	0.004	0.062
-204.232	800.000	-0.034	0.099	0.093	-0.273
-203.212	276.798	-0.079	-0.070	-0.073	0.015
-202.192	800.000	0.026	-0.105	0.113	0.028
-201.172	228.218	0.093	0.069	-0.109	-0.058
-200.152	800.000	0.123	0.297	0.032	0.102
-199.132	745.152	0.160	0.338	0.032	0.164
-198.112	800.000	0.102	0.233	0.222	0.046
-197.092	330.267	0.178	0.187	0.133	0.151
-196.072	191.095	0.271	0.171	0.156	0.277
-195.052	800.000	0.056	0.277	0.274	-0.061
-194.032	289.174	0.241	0.224	0.161	0.158
-193.012	103.766	0.204	0.077	0.224	0.044
-191.992	206.669	0.309	0.209	0.306	0.074
-190.972	186.764	0.253	0.156	0.318	0.287
-189.952	292.929	0.377	0.354	0.330	0.226
-188.932	491.389	0.270	0.407	0.503	0.276
-187.912	224.926	0.589	0.432	0.312	0.360
-186.892	241.571	0.642	0.502	0.670	0.597
-185.872	260.239	0.769	0.646	0.705	0.453
-184.852	217.940	0.733	0.521	0.624	0.748
-183.832	275.198	1.073	0.950	1.014	0.619
-182.812	243.610	1.161	0.917	1.338	0.949
-181.792	186.409	1.492	0.918	1.551	0.991
-180.772	261.042	1.694	1.427	1.549	1.093
-179.752	242.683	2.195	1.726	2.015	1.507
-178.732	256.785	2.415	2.004	2.590	1.985
-177.712	236.206	3.057	2.344	3.098	2.631
-176.692	225.505	4.061	2.981	3.985	3.003
-175.672	233.159	5.029	3.810	4.949	3.754
-174.652	233.270	6.422	4.867	6.368	4.736
-173.632	243.966	8.247	6.519	8.302	6.371
-172.612	245.445	11.173	8.883	11.019	8.999
-171.592	253.893	15.316	12.571	15.197	12.487
-170.572	260.285	22.217	18.669	22.457	18.699
-169.552	265.929	36.970	31.984	37.054	31.910
-168.532	229.084	76.331	64.510	76.365	64.332
-167.513	98.260	594.887	231.062	593.941	230.697
-166.493	232.335	6291.306	4851.939	6292.527	4854.507
-165.473	247.207	11733.944	10301.181	11734.964	10303.489
-164.453	231.896	11432.436	9550.240	11436.657	9554.012
-163.433	195.156	11054.209	7958.204	11061.428	7964.247
-162.413	185.376	11187.778	8103.217	11194.620	8108.794
-161.393	188.510	11134.112	8095.475	11141.429	8101.966
-160.373	194.258	11083.508	8050.372	11092.103	8056.656
-159.353	215.584	11039.515	8013.626	11047.294	8019.877
-158.333	184.914	11001.887	7981.752	11010.738	7988.110
-157.313	179.189	10975.248	7958.828	10983.385	7965.236
-156.293	175.770	10953.798	7942.508	10962.254	7948.952
-155.273	209.222	10933.737	7926.704	10941.033	7933.045
-154.253	204.395	10909.698	7908.371	10917.265	7915.330
-153.233	163.784	10891.366	7893.616	10898.601	7899.502
-152.213	170.008	10877.432	7882.901	10884.238	7889.640
-151.193	175.930	10861.441	7870.674	10869.716	7877.156
-150.173	175.082	10849.714	7861.078	10857.694	7867.871
-149.153	185.726	10842.176	7855.859	10849.815	7862.487
-148.133	187.747	10830.460	7850.822	10840.100	7856.611
-147.113	198.081	10816.160	7838.896	10825.246	7845.570
-146.093	186.965	10801.364	7821.609	10809.477	7827.780
-145.073	194.886	10785.025	7807.948	10793.693	7813.988
-144.053	177.601	10770.694	7798.690	10779.229	7805.420
-143.033	215.025	10757.204	7787.585	10765.135	7793.699
-142.013	232.881	10744.432	7777.958	10752.530	7784.038
-140.993	177.268	10733.740	7767.749	10741.035	7773.173
-139.973	179.573	10724.555	7760.572	10733.322	7766.088
-138.953	201.560	10714.491	7753.702	10723.459	7759.313
-137.933	208.923	10705.772	7747.497	10712.872	7753.126
-136.913	213.335	10698.050	7742.864	10705.740	7749.127
-135.893	187.287	10687.563	7736.888	10696.456	7743.188
-134.873	194.558	10676.843	7727.486	10685.394	7733.794
-133.853	208.969	10667.259	7719.256	10674.164	7725.626
-132.833	173.782	10654.401	7709.965	10662.656	7716.590
-131.813	166.604	10641.478	7700.348	10650.959	7706.005
-130.793	197.386	10629.651	7688.444	10637.932	7694.750
-129.773	175.492	10615.312	7677.090	10624.441	7683.606
-128.753	172.604	10606.704	7669.921	10615.167	7675.983
-127.733	175.079	10604.412	7666.786	10612.380	7674.048
-126.713	178.163	10599.711	7666.789	10609.289	7673.105
-125.693	182.354	10591.800	7661.125	10601.372	7667.576
-124.673	181.522	10584.151	7654.942	10591.701	7660.818
-123.653	160.689	10579.932	7653.092	10586.765	7659.191
-122.633	174.789	10571.000	7647.425	10578.373	7653.151
-121.613	187.799	10554.049	7632.264	10561.063	7638.272
-120.593	207.451	10540.939	7618.541	10548.971	7624.678
-119.573	168.860	10533.179	7613.691	10542.556	7619.341
-118.553	158.757	10528.095	7609.820	10536.444	7614.705
-117.533	153.432	10521.431	7605.265	10530.097	7611.731
-116.514	176.853	10510.149	7597.518	10518.267	7603.922
-115.494	157.766	10496.899	7586.387	10505.588	7592.986
-114.474	176.706	10489.852	7581.123	10498.272	7587.231
-113.454	172.864	10482.765	7577.053	10490.928	7583.284
-112.434	152.052	10467.396	7563.659	10476.321	7569.798
-111.414	153.658	10454.660	7550.073	10463.071	7556.563
-110.394	157.114	10447.824	7545.116	10456.163	7551.483
-109.374	150.783	10442.534	7543.430	10451.110	7549.791
-108.354	189.885	10434.773	7537.388	10442.407	7543.377
-107.334	173.761	10425.307	7527.758	10433.099	7534.306
-106.314	182.486	10417.625	7521.937	10426.798	7528.405
-105.294	170.279	10413.117	7520.476	10421.820	7526.286
-104.274	164.523	10403.176	7512.532	10412.087	7519.209
-103.254	154.738	10394.561	7504.658	10402.112	7510.134
-102.234	154.694	10390.138	7500.151	10398.623	7506.623
-101.214	166.982	10383.130	7496.399	10391.526	7502.192
-100.194	177.462	10380.278	7493.296	10388.705	7499.250
-99.174	165.474	10377.217	7492.661	10385.302	7498.779
-98.154	182.875	10367.072	7485.734	10375.748	7492.094
-97.134	200.964	10354.873	7475.088	10363.562	7481.326
-96.114	189.334	10350.029	7470.032	10358.558	7476.599
-95.094	163.431	10351.396	7472.647	10359.491	7478.684
-94.074	165.596	10347.694	7470.206	10356.548	7476.331
-93.054	156.810	10341.277	7465.771	10349.978	7472.395
-92.034	161.676	10336.193	7462.724	10345.081	7468.621
-91.014	144.268	10332.565	7458.891	10341.308	7464.759
-89.994	150.846	10328.774	7455.018	10336.985	7460.857
-88.974	153.927	10322.762	7449.897	10331.637	7456.232
-87.954	158.687	10319.988	7448.674	10328.464	7454.966
-86.934	158.459	10316.792	7448.569	10325.437	7454.138
-85.914	144.696	10309.731	7443.079	10317.754	7448.253
-84.894	146.803	10305.899	7437.710	10313.445	7443.230
-83.874	146.741	10306.112	7438.333	10312.503	7444.269
-82.854	142.480	10300.934	7437.518	10308.483	7442.833
-81.834	141.438	10295.127	7432.719	10302.969	7438.023
-80.814	129.227	10288.890	7429.760	10296.846	7435.510
-79.794	133.509	10283.381	7425.309	10291.395	7430.857
-78.774	148.822	10277.560	7419.225	10285.405	7424.421
-77.754	156.577	10276.009	7417.259	10282.722	7422.251
-76.734	161.248	10274.255	7416.635	10281.923	7421.754
-75.714	160.240	10268.947	7413.879	10276.619	7419.528
-74.694	134.034	10263.870	7412.211	10270.808	7416.933
-73.674	135.975	10262.040	7410.536	10269.445	7415.419
-72.654	143.714	10260.915	7410.039	10268.186	7414.970
-71.634	142.329	10259.831	7409.773	10266.367	7414.917
-70.614	145.440	10256.939	7409.088	10265.410	7414.762
-69.594	161.106	10252.932	7406.306	10260.697	7411.894
-68.574	146.356	10248.897	7403.739	10256.719	7408.907
-67.554	141.106	10242.361	7398.166	10249.683	7404.074
-66.535	158.592	10232.469	7390.646	10241.432	7396.201
-65.515	141.447	10223.806	7382.146	10230.852	7387.539
-64.495	142.407	10218.487	7379.091	10226.616	7383.835
-63.475	141.003	10217.149	7378.431	10225.428	7383.831
-62.455	147.592	10211.586	7374.764	10220.955	7380.123
-61.435	136.271	10200.733	7368.059	10209.336	7373.036
-60.415	153.651	10035.263	7276.212	10043.321	7281.098
-59.395	173.273	9762.317	7061.774	9770.020	7067.503
-58.375	163.301	9610.336	6864.929	9618.423	6871.281
-57.355	-200.000	9566.606	6796.577	9575.287	6802.363
-56.335	-14.098	9556.027	6793.099	9564.750	6798.541
-55.315	27.115	9541.625	6781.899	9549.393	6787.122
-54.295	51.322	9455.825	6746.030	9464.808	6749.835
-53.275	43.253	8970.929	6538.701	8984.747	6540.833
-52.255	30.399	8253.690	6049.100	8157.583	5938.401
-51.235	25.760	7913.361	5711.985	7679.862	5445.811
-50.215	25.569	7839.041	5656.086	7579.604	5363.478
-49.195	25.742	7769.676	5617.851	7506.454	5331.242
-48.175	25.890	7718.853	5593.096	7456.703	5292.753
-47.155	25.900	7680.064	5565.346	7415.072	5262.732
-46.135	25.934	7648.443	5543.934	7378.726	5236.050
-45.115	25.928	7619.291	5522.680	7346.523	5212.411
-44.095	25.961	7591.136	5502.610	7316.750	5190.376
-43.075	25.963	7563.853	5483.047	7290.046	5170.135
-42.055	25.949	7538.991	5464.298	7270.758	5155.133
-41.035	25.960	7522.881	5453.524	7256.479	5146.582
-40.015	25.978	7506.779	5443.537	7238.845	5136.320
-38.995	25.952	7487.750	5428.688	7222.552	5124.425
-37.975	25.966	7474.537	5419.158	7209.825	5114.628
-36.955	25.992	7464.270	5413.337	7197.117	5107.783
-35.935	26.003	7449.043	5402.630	7179.927	5097.599
-34.915	25.997	7433.636	5391.307	7152.777	5076.170
-33.895	26.017	7417.569	5378.659	7128.906	5056.459
-32.875	26.029	7399.464	5365.101	7114.831	5043.708
-31.855	26.002	7384.678	5353.198	7104.268	5036.328
-30.835	25.988	7375.329	5345.654	7091.566	5028.262
-29.815	26.029	7365.242	5339.860	7082.188	5020.413
-28.795	26.007	7357.413	5334.012	7071.077	5012.966
-27.775	26.001	7348.170	5328.796	7056.560	5002.739
-26.755	26.017	7336.497	5320.026	7043.860	4991.610
-25.735	26.041	7322.597	5309.930	7031.579	4983.460
-24.715	25.999	7314.856	5303.046	7017.263	4972.934
-23.695	26.025	7308.376	5298.582	7003.835	4962.531
-22.675	26.072	7302.229	5295.936	6994.215	4955.556
-21.655	26.132	7296.643	5293.460	6985.593	4948.835
-20.635	26.117	7285.395	5285.122	6978.272	4943.621
-19.615	26.084	7273.624	5275.004	6974.316	4942.298
-18.595	26.126	7266.432	5271.459	6967.892	4939.673
-17.575	26.133	7260.125	5266.490	6954.306	4930.522
-16.555	26.131	7249.549	5258.538	6937.250	4916.403
-15.536	26.094	7241.709	5251.806	6921.437	4902.416
-14.516	26.083	7235.829	5247.264	6908.259	4891.271
-13.496	26.129	7228.670	5242.243	6898.000	4883.137
-12.476	26.120	7220.520	5236.207	6890.377	4876.643
-11.456	26.121	7210.405	5228.511	6881.824	4870.565
-10.436	26.120	7202.065	5221.860	6874.007	4865.473
-9.416	26.129	7196.542	5217.888	6868.367	4860.455
-8.396	26.109	7191.532	5214.810	6863.085	4856.734
-7.376	26.119	7186.255	5211.508	6862.187	4856.994
-6.356	26.112	7179.737	5206.445	6860.335	4857.734
-5.336	26.138	7170.466	5200.152	6849.138	4850.435
-4.316	26.123	7160.776	5191.610	6838.163	4840.584
-3.296	26.111	7153.635	5186.282	6831.296	4835.341
-2.276	26.114	7146.947	5181.482	6827.024	4830.375
-1.256	25.989	7140.474	5176.519	6825.189	4829.795
-0.236	25.484	7132.469	5170.161	6818.820	4825.210
0.784	25.492	7068.228	5130.947	6755.651	4789.304
1.804	25.666	6895.783	5012.050	6642.510	4694.321
2.824	24.852	6672.139	4823.598	6578.329	4615.701
3.844	24.049	6542.910	4699.458	6561.037	4588.208
4.864	23.580	6520.306	4674.203	6542.495	4570.992
5.884	23.364	6503.565	4654.602	6521.653	4548.854
6.904	23.271	6480.294	4620.302	6440.514	4493.182
7.924	23.105	6443.171	4588.086	6247.347	4359.180
8.944	21.717	6401.231	4575.708	6106.651	4255.313
9.964	19.553	6360.272	4546.520	6065.293	4221.775
10.984	16.924	6290.015	4384.661	6001.004	4072.429
12.004	14.807	6237.505	4234.614	5949.180	3931.853
13.024	14.682	6220.373	4216.160	5929.454	3912.931
14.044	14.784	6200.566	4207.513	5911.094	3904.578
15.064	14.773	6179.865	4194.186	5895.624	3893.628
16.084	14.767	6160.134	4181.833	5883.283	3885.646
17.104	14.750	6144.273	4170.515	5874.476	3879.679
18.124	14.831	6130.757	4162.803	5865.286	3874.579
19.144	15.959	6114.168	4152.787	5855.573	3867.888
20.164	19.833	6095.944	4141.850	5844.859	3861.527
21.184	24.637	6127.662	4237.454	5859.299	3894.700
22.204	29.778	6195.709	4513.375	5929.451	4137.319
23.224	32.952	6218.890	4692.637	5979.414	4372.053
24.244	33.130	6206.652	4693.367	5975.814	4398.141
25.264	33.124	6197.663	4685.965	5962.106	4389.793
26.284	33.145	6191.403	4682.610	5948.580	4377.734
27.304	33.151	6184.641	4679.805	5941.232	4372.691
28.324	32.435	6172.995	4672.163	5935.039	4368.030
29.344	28.638	6163.284	4662.429	5928.503	4362.433
30.364	24.976	6114.354	4579.035	5923.982	4359.733
31.384	22.002	6022.428	4289.197	5880.926	4284.253
32.404	20.862	6002.201	4164.260	5791.793	4012.933
33.424	23.059	6029.720	4288.421	5765.119	3891.836
34.443	23.686	6033.033	4320.856	5788.041	4003.779
35.463	23.327	6082.671	4336.482	5790.628	4032.708
36.483	23.396	6142.201	4385.103	5828.142	4041.437
37.503	23.699	6153.648	4415.770	5875.171	4080.741
38.523	22.452	6151.104	4418.289	5883.983	4106.321
39.543	20.054	6139.717	4405.343	5881.899	4109.024
40.563	17.115	6093.202	4284.220	5874.976	4099.103
41.583	14.499	6045.105	4123.837	5831.992	3989.017
42.603	13.612	6033.194	4070.797	5788.597	3842.339
43.623	13.606	6027.860	4066.482	5780.340	3794.032
44.643	13.609	6024.195	4062.523	5777.510	3791.042
45.663	13.609	6021.912	4060.404	5772.410	3787.155
46.683	13.606	6021.444	4059.589	5764.870	3781.211
47.703	13.640	6020.239	4059.165	5760.646	3776.915
48.723	13.650	6018.405	4058.453	5755.944	3773.816
49.743	13.650	6015.613	4056.378	5751.250	3770.297
50.763	13.650	6012.390	4053.448	5750.272	3768.357
51.783	13.900	6010.833	4051.598	5750.896	3768.867
52.803	14.095	6007.223	4050.027	5748.576	3767.967
53.823	14.223	6008.219	4070.158	5744.360	3765.519
54.843	14.093	6002.886	4072.390	5747.711	3784.716
55.863	13.615	5994.332	4044.926	5747.836	3790.130
56.883	13.389	5991.981	4033.352	5742.714	3769.186
57.903	13.335	5988.002	4029.610	5743.108	3760.971
58.923	13.275	5983.115	4024.654	5740.990	3757.588
59.943	13.234	5979.727	4019.404	5734.098	3752.339
60.963	13.219	5976.656	4015.045	5730.437	3746.205
61.983	13.195	5975.183	4014.504	5729.583	3743.415
63.003	12.635	5978.440	4018.875	5724.486	3741.328
64.023	11.636	5974.342	4015.211	5723.108	3741.413
65.043	10.316	5951.640	3960.580	5722.085	3738.172
66.063	9.066	5931.189	3891.141	5704.710	3692.897
67.083	8.447	5927.217	3868.283	5683.561	3629.081
68.103	7.804	5927.572	3865.375	5678.143	3604.518
69.123	7.005	5915.099	3843.569	5675.557	3600.535
70.143	6.228	5900.895	3800.412	5663.895	3580.511
71.163	5.736	5893.709	3771.536	5645.939	3538.141
72.183	5.661	5885.789	3764.582	5633.789	3506.000
73.203	5.651	5878.797	3759.064	5625.127	3498.406
74.223	5.611	5873.669	3753.143	5621.834	3495.195
75.243	5.641	5873.745	3754.408	5618.086	3492.184
76.263	5.634	5875.600	3755.153	5616.705	3493.140
77.283	5.674	5875.342	3757.088	5614.114	3491.205
78.303	5.670	5874.002	3755.488	5607.999	3487.863
79.323	5.648	5871.689	3753.177	5602.169	3482.484
80.343	5.755	5869.844	3752.727	5598.369	3478.782
81.363	6.225	5864.882	3748.740	5597.635	3479.114
82.383	6.858	5864.227	3752.787	5594.176	3476.396
83.403	7.649	5874.500	3787.878	5593.616	3478.610
84.422	8.223	5880.010	3819.685	5600.315	3509.237
85.442	8.250	5876.103	3822.177	5603.469	3537.227
86.462	8.188	5869.923	3816.036	5603.305	3542.174
87.482	8.139	5865.045	3808.013	5602.402	3540.575
88.502	8.144	5862.548	3806.510	5597.653	3534.530
89.522	8.126	5861.234	3807.757	5595.521	3532.908
90.542	8.031	5859.044	3805.530	5592.461	3533.547
91.562	7.920	5856.018	3799.485	5585.786	3527.226
92.582	7.951	5852.337	3792.984	5581.322	3520.122
93.602	8.047	5847.846	3790.463	5575.573	3512.665
94.622	8.131	5845.875	3792.328	5571.329	3508.536
95.642	8.261	5841.304	3792.331	5569.991	3510.096
96.662	8.419	5838.555	3791.536	5571.708	3514.872
97.682	8.566	5840.504	3795.717	5574.614	3518.683
98.702	8.774	5841.055	3802.298	5575.490	3523.286
99.722	8.968	5838.477	3806.394	5577.106	3529.339
100.742	9.062	5832.999	3806.148	5576.578	3533.484
101.762	9.088	5829.030	3805.061	5577.085	3537.298
102.782	9.080	5828.013	3804.851	5577.687	3539.963
103.802	9.090	5828.232	3804.520	5578.668	3541.089
104.822	9.122	5827.169	3804.920	5577.161	3540.702
105.842	9.142	5824.186	3803.756	5574.825	3538.695
106.862	9.161	5819.583	3799.642	5574.273	3538.496
107.882	9.202	5813.396	3794.910	5572.289	3537.574
108.902	9.246	5808.886	3793.541	5568.224	3534.128
109.922	9.300	5805.870	3793.485	5565.593	3533.179
110.942	9.354	5803.583	3792.713	5564.966	3535.594
111.962	9.306	5804.038	3792.906	5561.284	3534.168
112.982	9.256	5802.980	3794.065	5561.027	3533.388
114.002	9.168	5799.508	3789.385	5563.901	3535.895
115.022	9.056	5795.827	3781.734	5557.632	3530.465
116.042	8.992	5792.817	3777.322	5552.155	3521.129
117.062	9.005	5787.736	3773.686	5549.683	3518.315
118.082	8.987	5781.715	3769.125	5550.766	3518.290
119.102	9.015	5778.693	3766.500	5552.023	3520.946
120.122	9.037	5777.792	3766.337	5544.912	3517.258
121.142	9.037	5773.934	3764.209	5537.926	3511.234
122.162	9.043	5770.165	3760.832	5535.508	3508.606
123.182	9.055	5765.766	3757.875	5531.948	3506.747
124.202	9.030	5761.308	3752.898	5525.877	3502.123
125.222	8.980	5759.830	3750.928	5520.009	3497.195
126.242	8.901	5759.400	3750.919	5517.668	3494.601
127.262	8.818	5759.608	3749.407	5513.505	3491.702
128.282	8.768	5759.565	3746.782	5512.534	3488.414
129.302	8.759	5760.058	3744.841	5513.331	3487.015
130.322	8.819	5761.599	3747.282	5513.975	3487.574
131.342	8.848	5762.432	3749.004	5511.880	3487.702
132.362	8.922	5761.531	3750.115	5509.255	3486.573
133.382	9.019	5758.981	3748.440	5507.018	3486.192
134.402	9.040	5756.480	3747.270	5500.375	3481.266
135.421	9.079	5756.024	3751.089	5497.913	3479.111
136.441	9.032	5754.864	3751.221	5495.926	3483.186
137.461	8.702	5751.538	3745.687	5489.295	3478.241
138.481	7.893	5747.391	3738.936	5483.303	3470.931
139.501	6.889	5734.685	3714.209	5478.297	3465.276
140.521	5.893	5719.635	3664.516	5462.698	3440.908
141.541	5.299	5708.549	3628.644	5443.397	3391.492
142.561	5.237	5702.195	3620.838	5432.139	3355.973
143.581	5.204	5699.182	3617.802	5427.812	3348.449
144.601	5.177	5696.311	3616.313	5427.901	3347.575
145.621	5.114	5695.387	3612.739	5429.417	3349.321
146.641	5.082	5690.939	3609.432	5426.329	3346.503
147.661	5.097	5687.379	3606.972	5424.952	3343.994
148.681	5.098	5687.508	3605.039	5426.529	3346.154
149.701	5.138	5687.607	3606.627	5422.703	3343.669
150.721	5.145	5686.877	3608.006	5416.896	3339.151
151.741	5.203	5684.932	3607.105	5415.361	3338.154
152.761	5.165	5682.843	3603.844	5416.672	3340.147
153.781	5.190	5678.782	3602.062	5417.263	3339.455
154.801	5.171	5673.683	3598.689	5416.448	3339.022
155.821	5.116	5667.934	3594.029	5415.256	3338.898
156.841	5.064	5663.990	3589.105	5411.310	3336.530
157.861	5.049	5659.115	3584.694	5402.804	3329.998
158.881	5.052	5656.117	3581.140	5394.662	3322.296
159.901	5.273	5657.423	3583.460	5393.286	3318.682
160.921	5.855	5656.939	3585.305	5395.705	3321.209
161.941	6.622	5659.511	3599.126	5396.498	3324.161
162.961	7.446	5663.133	3628.804	5399.873	3335.522
163.981	8.003	5665.428	3651.563	5407.456	3365.733
165.001	8.262	5668.604	3664.929	5413.359	3390.895
166.021	8.377	5667.192	3668.025	5414.598	3402.723
167.041	8.434	5665.765	3667.215	5413.745	3405.177
168.061	8.545	5664.029	3668.373	5413.932	3405.844
169.081	8.587	5663.561	3670.197	5410.906	3406.461
170.101	8.602	5662.010	3670.547	5407.502	3406.153
171.121	8.550	5659.977	3668.309	5407.084	3406.151
172.141	8.517	5656.605	3664.469	5403.518	3404.076
173.161	8.484	5653.800	3660.224	5399.973	3399.644
174.181	8.572	5649.108	3658.286	5399.495	3396.760
175.201	8.702	5644.494	3656.598	5400.144	3398.096
176.221	8.806	5643.998	3657.402	5399.280	3400.076
177.241	8.960	5641.800	3661.889	5397.643	3401.105
178.261	9.015	5638.320	3661.796	5393.616	3402.052
179.281	9.023	5636.415	3661.011	5392.335	3403.589
180.301	9.061	5634.574	3660.835	5392.094	3405.668
181.321	9.027	5631.656	3659.059	5385.426	3401.555
182.341	8.976	5626.433	3655.408	5385.041	3400.275
183.361	8.922	5617.510	3646.477	5386.199	3401.380
184.381	8.813	5612.188	3638.835	5380.103	3396.492
185.400	8.770	5612.017	3639.708	5374.526	3389.454
186.420	8.736	5610.236	3638.739	5369.428	3387.254
187.440	8.635	5607.240	3631.944	5364.026	3383.067
188.460	8.646	5606.771	3631.089	5358.659	3375.452
189.480	8.690	5604.564	3630.101	5353.767	3370.178
190.500	8.685	5602.477	3628.622	5351.784	3368.582
191.520	8.651	5602.464	3629.030	5350.778	3369.054
192.540	8.589	5602.069	3628.841	5346.358	3366.560
193.560	8.457	5602.448	3628.187	5347.135	3365.608
194.580	8.283	5597.344	3620.411	5347.909	3366.484
195.600	8.151	5590.783	3610.005	5342.232	3360.170
196.620	8.060	5586.395	3604.125	5335.819	3349.156
197.640	8.045	5582.726	3600.682	5337.048	3346.821
198.660	8.050	5579.226	3596.167	5337.839	3347.888
199.680	8.164	5579.270	3596.512	5334.954	3345.201
200.700	8.298	5583.051	3601.930	5330.819	3342.906
201.720	8.411	5585.101	3608.299	5325.788	3341.346
202.740	8.442	5583.879	3609.959	5323.310	3342.514
203.760	8.411	5582.462	3608.865	5319.973	3342.680
204.780	8.355	5579.637	3606.826	5315.804	3341.548
205.800	8.253	5576.092	3602.048	5313.624	3337.932
206.820	8.121	5572.860	3595.780	5309.991	3333.467
207.840	8.068	5570.736	3591.969	5307.892	3329.699
208.860	8.014	5566.904	3588.259	5308.230	3326.265
209.880	7.937	5562.624	3584.313	5307.323	3324.462
210.900	7.790	5557.138	3578.517	5305.780	3323.100
211.920	7.630	5549.637	3568.130	5304.404	3320.019
212.940	7.599	5545.643	3559.980	5302.134	3314.664
213.960	7.728	5543.734	3558.673	5298.470	3307.730
214.980	7.937	5542.949	3562.273	5298.662	3306.352
216.000	8.151	5544.940	3569.175	5301.508	3312.540
217.020	8.385	5545.993	3576.604	5304.633	3320.556
218.040	8.578	5542.227	3578.797	5305.733	3327.459
219.060	8.672	5536.022	3577.251	5305.243	3330.534
220.080	8.723	5531.591	3575.900	5303.527	3331.800
221.100	8.761	5532.543	3577.534	5302.549	3334.440
222.120	8.785	5533.474	3578.698	5301.337	3335.097
223.140	8.793	5533.306	3580.484	5300.166	3334.370
224.160	8.763	5532.386	3580.138	5299.533	3334.874
225.180	8.698	5531.014	3577.322	5301.244	3336.580
226.200	8.647	5530.254	3575.720	5300.183	3335.513
227.220	8.589	5526.093	3571.270	5295.635	3331.404
228.240	8.498	5520.525	3563.785	5292.301	3326.411
229.260	8.503	5515.690	3559.690	5292.132	3323.009
230.280	8.572	5512.396	3557.996	5296.180	3324.792
231.300	8.683	5510.669	3558.610	5301.466	3330.520
232.320	8.854	5508.941	3560.999	5301.143	3334.190
233.340	8.979	5510.662	3565.167	5295.602	3333.419
234.360	9.110	5511.675	3569.766	5291.724	3332.497
235.380	9.258	5511.608	3572.476	5291.533	3335.314
236.399	9.382	5513.482	3575.962	5289.583	3337.211
237.419	9.451	5511.780	3578.541	5284.354	3335.939
238.439	9.472	5505.611	3576.418	5284.177	3337.851
239.459	9.453	5500.256	3570.799	5284.732	3341.014
240.479	9.429	5496.967	3567.287	5286.050	3341.461
241.499	9.457	5493.669	3566.133	5283.721	3340.295
242.519	9.460	5491.125	3563.869	5278.800	3336.810
243.539	9.479	5487.106	3561.364	5274.634	3334.003
244.559	9.485	5484.933	3560.275	5268.651	3331.056
245.579	9.490	5484.994	3560.218	5263.155	3327.889
246.599	9.510	5485.862	3562.126	5260.800	3325.261
247.619	9.466	5484.338	3561.312	5256.388	3323.090
248.639	9.377	5478.929	3554.913	5249.045	3316.355
249.659	9.305	5473.418	3549.367	5248.579	3313.163
250.679	9.250	5471.728	3545.642	5250.357	3314.798
251.699	9.258	5470.964	3544.607	5247.664	3310.885
252.719	9.235	5471.374	3545.796	5244.751	3308.465
253.739	9.190	5469.391	3544.334	5241.309	3305.702
254.759	9.155	5466.111	3540.498	5233.954	3300.958
255.779	9.102	5461.107	3535.287	5225.809	3293.468
256.799	9.062	5458.071	3531.942	5220.839	3286.920
257.819	9.052	5454.736	3528.403	5217.711	3285.216
258.839	9.072	5451.528	3525.013	5215.838	3282.258
259.859	9.032	5450.837	3525.789	5215.621	3280.552
260.879	8.543	5449.481	3528.286	5215.820	3281.708
261.899	7.853	5440.498	3517.465	5214.735	3284.743
262.919	7.050	5425.967	3476.418	5209.276	3278.527
263.939	6.434	5418.668	3445.487	5198.224	3244.197
264.959	6.450	5415.496	3443.037	5189.013	3212.622
265.979	6.442	5411.218	3437.716	5185.534	3207.431
266.999	6.437	5407.136	3434.574	5184.168	3204.292
268.019	6.411	5405.721	3434.420	5184.340	3203.695
269.039	6.354	5405.390	3433.572	5183.955	3206.009
270.059	6.337	5407.788	3433.779	5180.338	3203.732
271.079	6.346	5406.028	3433.216	5176.067	3198.231
272.099	6.347	5400.495	3429.609	5173.719	3195.164
273.119	6.315	5395.576	3424.312	5176.054	3197.175
274.139	6.301	5391.938	3421.628	5174.287	3196.557
275.159	6.296	5386.555	3418.726	5168.695	3192.756
276.179	6.253	5384.979	3415.736	5164.470	3189.939
277.199	6.245	5383.179	3413.671	5161.368	3185.918
278.219	6.319	5369.853	3408.623	5160.628	3183.248
279.239	6.394	5336.133	3388.754	5158.794	3183.575
280.259	6.450	5305.356	3369.173	5154.416	3180.154
281.279	6.499	5292.599	3362.957	5147.309	3176.935
282.299	6.486	5287.103	3359.162	5141.797	3173.884
283.319	6.505	5282.701	3357.554	5136.349	3171.841
284.339	6.538	5276.385	3354.755	5132.246	3170.973
285.359	6.545	5269.564	3350.003	5130.547	3169.896
286.378	6.522	5267.680	3347.823	5129.618	3170.037
287.398	6.531	5265.835	3348.351	5127.042	3165.854
288.418	6.603	5258.448	3344.686	5124.588	3164.945
289.438	6.589	5253.465	3339.693	5123.343	3164.834
290.458	6.574	5250.575	3337.970	5119.880	3164.115
291.478	6.593	5246.765	3337.108	5118.071	3161.988
292.498	6.575	5240.424	3333.151	5116.504	3159.798
293.518	6.512	5229.431	3324.744	5119.900	3173.323
294.538	6.486	5220.158	3318.290	5126.421	3205.765
295.558	6.451	5214.815	3313.678	5128.394	3225.691
296.578	6.447	5209.783	3309.755	5124.036	3220.866
297.598	6.492	5206.784	3308.010	5116.107	3213.797
298.618	6.514	5202.048	3304.934	5109.336	3208.029
299.638	6.505	5197.613	3302.807	5106.357	3207.101
300.658	6.554	5190.092	3299.697	5104.038	3206.127
301.678	6.542	5181.807	3292.745	5102.157	3205.352
302.698	6.501	5178.826	3289.415	5099.877	3205.881
303.718	6.545	5174.847	3289.035	5096.219	3204.077
304.738	6.512	5167.226	3283.715	5090.938	3200.520
305.758	6.451	5159.439	3276.921	5083.792	3194.612
306.778	6.467	5157.252	3274.746	5079.635	3192.416
307.798	6.487	5156.598	3275.589	5078.365	3192.557
308.818	6.493	5155.867	3274.264	5075.763	3192.952
309.838	6.536	5155.736	3273.798	5073.154	3192.062
310.858	6.590	5152.334	3273.471	5070.618	3190.399
311.878	6.545	5144.831	3267.708	5068.282	3188.660
312.898	6.549	5139.201	3263.282	5066.464	3186.180
313.918	6.672	5136.148	3261.106	5064.534	3183.924
314.938	7.169	5133.471	3261.411	5062.539	3182.409
315.958	8.617	5130.257	3262.881	5063.044	3181.598
316.978	10.749	5137.594	3289.376	5062.154	3182.408
317.998	13.354	5162.333	3374.433	5061.209	3183.858
319.018	15.494	5184.003	3459.689	5059.625	3181.303
320.038	16.486	5192.920	3499.571	5059.076	3177.380
321.058	16.943	5193.961	3517.357	5056.044	3174.048
322.078	17.121	5195.509	3525.691	5052.946	3169.782
323.098	17.190	5198.925	3531.761	5050.817	3165.926
324.118	17.211	5199.369	3533.109	5047.350	3160.103
325.138	17.166	5195.537	3529.334	5042.512	3152.806
326.158	17.110	5192.159	3525.222	5038.526	3146.680
327.178	17.090	5194.059	3525.074	5037.434	3143.639
328.198	17.113	5193.984	3525.743	5037.760	3143.684
329.218	17.126	5188.626	3521.106	5036.495	3145.494
330.238	17.066	5185.060	3516.500	5036.439	3147.437
331.258	16.984	5184.244	3515.194	5036.994	3149.664
332.278	16.942	5180.135	3512.149	5034.805	3150.260
333.298	16.923	5176.554	3508.573	5032.284	3148.973
334.318	16.859	5171.740	3503.727	5026.384	3143.236
335.338	16.796	5168.477	3500.251	5018.367	3136.165
336.358	16.768	5171.477	3501.471	5011.783	3130.282
337.377	16.754	5172.916	3502.736	5009.744	3125.963
338.397	16.714	5170.491	3500.732	5009.566	3123.770
339.417	16.621	5165.680	3495.711	5007.596	3120.194
340.437	16.475	5162.706	3490.025	5002.005	3112.271
341.457	16.398	5160.561	3487.177	4995.540	3102.444
342.477	16.204	5157.219	3481.739	4989.128	3092.716
343.497	15.952	5154.061	3474.464	4985.588	3087.303
344.517	15.753	5151.497	3468.238	4986.213	3089.939
345.537	15.621	5147.388	3460.906	4987.922	3096.397
346.557	15.501	5139.103	3450.559	4988.640	3100.066
347.577	15.414	5131.599	3442.624	4986.998	3099.381
348.597	15.328	5129.326	3440.185	4982.651	3095.957
349.617	15.228	5128.361	3437.741	4981.174	3097.658
350.637	15.205	5126.759	3435.280	4978.422	3100.000
351.657	15.310	5121.825	3431.525	4971.946	3097.519
352.677	15.358	5120.841	3429.474	4968.278	3094.178
353.697	15.475	5121.043	3433.157	4969.115	3094.862
354.717	15.575	5115.890	3432.800	4965.630	3093.073
355.737	15.633	5112.819	3431.745	4961.598	3086.918
356.757	15.778	5115.733	3436.419	4957.056	3080.999
357.777	15.906	5114.136	3437.966	4951.212	3075.045
358.797	15.977	5109.901	3436.064	4948.709	3073.284
359.817	16.042	5108.779	3436.427	4948.017	3074.045
360.837	16.067	5106.677	3435.322	4943.665	3071.718
361.857	16.157	5103.803	3435.286	4941.392	3072.268
362.877	16.194	5104.023	3436.994	4940.359	3075.797
363.897	16.249	5103.516	3438.880	4940.563	3079.455
364.917	16.309	5099.615	3436.909	4940.456	3081.176
365.937	16.357	5096.561	3434.810	4939.402	3080.282
366.957	16.349	5097.444	3434.934	4936.352	3076.933
367.977	16.369	5096.303	3435.580	4934.122	3075.713
368.997	16.380	5087.785	3430.412	4932.552	3075.045
370.017	16.308	5079.771	3422.464	4933.228	3077.182
371.037	16.275	5074.692	3417.180	4935.337	3080.455
372.057	16.246	5076.931	3418.808	4932.132	3078.814
373.077	16.231	5079.794	3420.648	4927.130	3075.112
374.097	16.236	5076.826	3418.833	4929.665	3077.085
375.117	16.199	5073.020	3415.280	4933.077	3081.334
376.137	16.117	5072.543	3413.343	4933.397	3082.949
377.157	16.066	5071.347	3411.419	4932.537	3082.289
378.177	16.073	5067.230	3408.379	4931.074	3081.047
379.197	16.056	5062.736	3404.041	4928.804	3077.645
380.217	16.052	5057.767	3399.617	4923.853	3071.432
381.237	16.083	5053.191	3396.057	4918.786	3064.570
382.257	16.151	5047.723	3392.558	4915.489	3059.064
383.277	16.170	5047.565	3393.108	4914.843	3057.061
384.297	16.241	5050.442	3397.207	4912.791	3056.586
385.317	16.337	5050.528	3399.206	4908.423	3054.461
386.337	16.409	5048.579	3399.277	4905.673	3054.028
387.356	16.427	5047.141	3398.665	4901.408	3051.139
388.376	16.442	5044.877	3397.658	4895.645	3044.966
389.396	16.484	5041.105	3396.002	4891.476	3038.729
390.416	16.540	5037.122	3393.757	4890.281	3036.303
391.436	16.535	5033.029	3390.083	4886.520	3032.683
392.456	16.503	5029.230	3387.788	4880.990	3023.095
393.476	16.535	5026.714	3387.220	4872.038	3006.199
394.496	16.534	5021.720	3382.537	4857.836	2974.057
395.516	16.528	5019.601	3380.506	4849.386	2947.024
396.536	16.556	5018.835	3380.186	4848.331	2941.894
397.556	16.544	5017.942	3378.857	4848.524	2943.398
398.576	16.548	5018.129	3379.042	4847.331	2943.216
399.596	16.591	5017.536	3378.828	4843.583	2942.674
400.616	16.611	5013.638	3376.605	4843.361	2942.073
401.636	16.540	5011.237	3374.103	4842.617	2941.552
402.656	16.501	5008.503	3371.082	4838.285	2939.184
403.676	16.506	5008.440	3370.808	4832.953	2933.817
404.696	16.552	5006.305	3371.317	4831.739	2934.164
405.716	16.481	5004.989	3369.152	4837.316	2955.159
406.736	16.501	5001.852	3367.662	4843.625	2985.687
407.756	16.535	4997.206	3363.877	4847.256	3001.700
408.776	16.525	4995.104	3361.945	4847.478	3005.958
409.796	16.491	4995.312	3361.796	4844.844	3005.644
410.816	16.471	4994.602	3361.921	4840.748	3003.189
411.836	16.481	4991.750	3360.079	4837.155	3002.813
412.856	16.529	4986.400	3356.084	4834.655	3003.422
413.876	16.511	4983.508	3352.810	4832.873	3003.256
414.896	16.476	4978.871	3349.254	4831.870	3002.156
415.916	16.434	4977.000	3347.364	4831.021	3001.446
416.936	16.426	4978.876	3348.189	4828.789	3001.269
417.956	16.446	4979.341	3349.085	4828.260	3000.876
418.976	16.433	4976.836	3347.881	4825.821	3001.660
419.996	16.392	4972.698	3344.055	4820.441	2998.802
421.016	16.419	4968.132	3339.161	4816.553	2996.982
422.036	16.451	4966.154	3337.295	4815.600	2999.508
423.056	16.480	4965.624	3338.282	4813.500	2998.902
424.076	16.484	4964.230	3337.709	4811.476	2998.348
425.096	16.468	4958.509	3333.431	4808.081	2998.373
426.116	16.440	4953.614	3329.094	4804.301	2995.187
427.136	16.480	4949.895	3327.094	4802.878	2992.337
428.156	16.497	4948.875	3326.135	4800.760	2989.060
429.176	16.519	4950.609	3327.153	4797.838	2985.295
430.196	16.525	4951.243	3328.538	4796.674	2983.732
431.216	16.516	4950.962	3329.047	4794.976	2981.852
432.236	16.522	4950.802	3328.065	4795.522	2981.677
433.256	16.534	4948.445	3325.959	4795.201	2982.350
434.276	16.543	4948.267	3325.922	4792.740	2980.604
435.296	16.601	4946.108	3326.480	4790.163	2977.703
436.316	16.573	4940.952	3322.297	4786.034	2974.172
437.336	16.528	4942.029	3321.523	4784.511	2972.957
438.355	16.538	4942.274	3322.336	4786.103	2973.074
439.375	16.619	4939.863	3321.384	4785.943	2972.809
440.395	16.593	4938.452	3320.041	4784.725	2968.688
441.415	16.574	4935.718	3317.564	4785.531	2965.696
442.435	16.583	4934.961	3316.707	4785.969	2966.678
443.455	16.579	4936.012	3318.272	4786.024	2969.031
444.475	16.594	4934.188	3318.122	4784.704	2971.453
445.495	16.615	4927.652	3313.556	4781.266	2971.196
446.515	16.580	4919.151	3305.714	4777.964	2967.714
447.535	16.559	4916.615	3302.402	4776.396	2965.167
448.555	16.529	4915.802	3301.975	4776.719	2965.053
449.575	16.511	4911.702	3299.913	4777.360	2965.135
450.595	16.511	4909.042	3296.689	4778.029	2964.376
451.615	16.546	4906.342	3294.551	4775.964	2961.817
452.635	16.509	4903.122	3292.434	4772.457	2957.423
453.655	16.470	4901.741	3289.770	4769.872	2956.550
454.675	16.501	4901.065	3289.020	4769.959	2958.929
455.695	16.552	4898.509	3288.464	4770.157	2961.986
456.715	16.481	4899.955	3287.143	4766.777	2961.523
457.735	16.501	4903.348	3290.141	4762.225	2959.748
458.755	16.529	4903.923	3291.507	4757.519	2957.811
459.775	16.514	4898.334	3287.932	4753.351	2955.338
460.795	16.464	4895.268	3283.882	4746.834	2949.400
461.815	16.442	4892.810	3281.748	4742.643	2945.020
462.835	16.412	4888.456	3278.774	4740.092	2942.535
463.855	16.362	4886.056	3276.103	4735.095	2938.865
464.875	16.339	4884.324	3273.967	4730.075	2934.357
465.895	16.291	4881.727	3271.211	4728.077	2932.359
466.915	16.233	4878.029	3268.050	4727.470	2935.706
467.935	16.202	4876.117	3265.404	4725.586	2938.579
468.955	16.245	4872.589	3263.455	4723.458	2936.589
469.975	16.244	4869.107	3259.487	4723.763	2936.904
470.995	16.294	4870.270	3260.595	4725.542	2940.351
472.015	16.365	4864.926	3259.510	4724.606	2941.290
473.035	16.292	4857.144	3251.944	4725.735	2940.635
474.055	16.308	4853.700	3248.039	4725.538	2940.632
475.075	16.361	4851.635	3247.204	4723.169	2937.333
476.095	16.370	4849.443	3246.859	4721.112	2933.811
477.115	16.397	4845.533	3245.076	4719.188	2932.920
478.135	16.419	4840.765	3241.071	4715.956	2930.872
479.155	16.436	4836.870	3239.096	4713.369	2929.364
480.175	16.408	4837.799	3238.739	4712.276	2930.310
481.195	16.479	4837.255	3240.019	4710.081	2930.738
482.215	16.519	4833.959	3238.667	4708.671	2931.437
483.235	16.508	4830.775	3236.236	4706.061	2931.412
484.255	16.515	4828.013	3234.504	4705.221	2932.434
485.275	16.507	4826.365	3233.401	4707.155	2934.081
486.295	16.522	4824.624	3232.108	4705.974	2931.920
487.315	16.560	4823.075	3230.870	4703.483	2927.551
488.334	16.589	4822.422	3230.435	4700.281	2922.961
489.354	16.583	4824.049	3232.345	4695.421	2918.795
490.374	16.598	4823.427	3231.930	4690.517	2914.711
491.394	16.627	4823.097	3231.344	4686.755	2907.772
492.414	16.652	4820.670	3230.738	4683.292	2899.233
493.434	16.617	4816.149	3227.566	4681.362	2892.283
494.454	16.538	4816.657	3226.017	4682.685	2890.510
495.474	16.546	4818.363	3227.568	4680.844	2888.464
496.494	16.642	4814.638	3227.377	4675.577	2882.827
497.514	16.642	4810.379	3222.409	4672.614	2878.768
498.534	16.627	4808.266	3219.875	4670.511	2877.464
499.554	16.659	4805.876	3219.135	4668.027	2876.496
500.574	16.686	4801.754	3216.687	4668.522	2880.057
501.594	16.638	4796.499	3212.648	4670.807	2886.505
502.614	16.600	4794.116	3210.307	4666.917	2885.883
503.634	16.648	4792.776	3209.964	4660.086	2879.670
504.654	16.640	4787.541	3206.847	4656.715	2876.065
505.674	16.560	4785.817	3203.056	4657.159	2876.386
506.694	16.600	4785.928	3203.479	4657.206	2877.264
507.714	16.585	4785.735	3203.354	4653.544	2874.533
508.734	16.624	4783.487	3202.509	4651.274	2874.905
509.754	16.611	4779.905	3199.205	4652.793	2882.636
510.774	16.584	4779.903	3198.788	4649.543	2885.704
511.794	16.570	4781.206	3200.098	4640.713	2860.277
512.814	16.577	4779.339	3199.101	4631.505	2828.143
513.834	16.589	4774.757	3195.486	4625.992	2816.881
514.854	16.544	4770.490	3191.589	4625.037	2814.163
515.874	16.473	4768.025	3188.090	4627.559	2817.358
516.894	16.492	4767.935	3188.303	4628.406	2818.939
517.914	16.486	4769.943	3189.582	4625.579	2816.588
518.934	16.487	4770.145	3189.181	4623.467	2816.364
519.954	16.550	4767.836	3188.475	4619.189	2814.765
520.974	16.576	4763.646	3185.812	4616.690	2815.283
521.994	16.533	4757.677	3180.920	4619.699	2833.011
523.014	16.523	4757.208	3179.332	4621.598	2850.599
524.034	16.583	4757.990	3181.431	4619.642	2852.505
525.054	16.592	4756.824	3180.598	4617.320	2851.224
526.074	16.571	4754.872	3180.138	4614.757	2848.640
527.094	16.560	4749.491	3176.917	4611.854	2846.269
528.114	16.528	4745.306	3173.180	4609.484	2845.112
529.134	16.540	4741.341	3170.541	4606.969	2844.729
530.154	16.564	4737.514	3167.258	4603.009	2840.908
531.174	16.557	4736.353	3164.920	4600.108	2836.312
532.194	16.519	4736.750	3165.434	4601.010	2833.771
533.214	16.492	4738.395	3166.787	4598.041	2832.935
534.234	16.578	4738.397	3167.443	4595.490	2832.707
535.254	16.616	4732.873	3164.041	4597.772	2836.078
536.274	16.575	4726.835	3158.507	4599.048	2840.206
537.294	16.593	4720.599	3154.111	4598.304	2843.366
538.314	16.566	4716.963	3150.353	4595.207	2842.311
539.333	16.491	4715.289	3147.508	4593.576	2841.925
540.353	16.525	4715.214	3148.663	4593.867	2843.071
541.373	16.527	4716.874	3149.751	4594.802	2844.934
542.393	16.524	4716.821	3149.976	4595.953	2846.607
543.413	16.563	4713.384	3148.090	4596.213	2847.342
544.433	16.559	4708.416	3144.313	4593.909	2846.388
545.453	16.549	4703.423	3140.250	4591.025	2844.239
546.473	16.515	4699.805	3136.456	4589.370	2841.945
547.493	16.461	4700.808	3136.473	4589.641	2841.000
548.513	16.418	4701.414	3137.424	4585.772	2837.081
549.533	16.402	4702.069	3137.444	4579.138	2829.195
550.553	16.405	4701.352	3136.780	4573.597	2821.063
551.573	16.411	4697.477	3134.334	4571.267	2817.323
552.593	16.401	4694.441	3132.080	4570.587	2816.959
553.613	16.318	4691.487	3128.908	4571.187	2817.504
554.633	16.206	4689.340	3124.638	4574.937	2820.898
555.653	16.139	4687.757	3122.509	4577.515	2825.713
556.673	16.124	4688.530	3122.982	4576.274	2827.833
557.693	16.055	4690.393	3122.664	4573.286	2827.682
558.713	16.054	4687.463	3120.960	4572.572	2827.508
559.733	15.998	4684.762	3116.226	4573.639	2828.857
560.753	16.018	4686.150	3116.134	4571.125	2830.148
561.773	16.091	4687.897	3118.702	4565.829	2828.829
562.793	16.188	4685.585	3118.744	4562.175	2824.909
563.813	16.235	4683.262	3117.469	4559.921	2823.192
564.833	16.280	4683.790	3119.023	4559.141	2823.407
565.853	16.312	4683.195	3119.707	4558.517	2823.012
566.873	16.307	4678.895	3117.282	4556.686	2821.627
567.893	16.319	4671.801	3113.239	4551.881	2818.092
568.913	16.310	4667.503	3109.263	4546.949	2814.029
569.933	16.313	4664.235	3106.896	4545.953	2813.193
570.953	16.309	4660.963	3104.122	4543.935	2811.603
571.973	16.326	4658.363	3101.444	4541.749	2808.091
572.993	16.368	4657.543	3100.852	4536.598	2799.205
574.013	16.367	4658.736	3101.755	4529.007	2784.795
575.033	16.273	4657.883	3100.518	4516.560	2764.919
576.053	16.220	4652.055	3096.328	4506.389	2741.020
577.073	16.133	4646.309	3090.618	4505.515	2731.180
578.093	16.037	4643.399	3086.058	4508.422	2740.131
579.113	15.995	4641.279	3083.677	4508.996	2747.225
580.133	15.950	4638.736	3080.798	4506.308	2745.347
581.153	15.894	4635.726	3077.454	4504.211	2743.994
582.173	15.790	4633.735	3073.634	4503.197	2746.087
583.193	15.714	4635.601	3073.321	4503.661	2749.143
584.213	15.621	4637.491	3073.686	4504.696	2754.351
585.233	15.499	4635.450	3070.959	4504.873	2758.658
586.253	15.387	4629.801	3064.646	4503.798	2760.043
587.273	15.281	4625.965	3057.595	4503.763	2761.861
588.293	15.253	4626.849	3054.778	4505.287	2767.079
589.312	15.302	4629.919	3058.247	4506.048	2771.737
590.332	15.408	4627.917	3061.065	4504.245	2772.144
591.352	15.379	4623.753	3057.762	4503.029	2772.437
592.372	15.403	4620.331	3055.018	4502.746	2774.552
593.392	15.560	4616.572	3053.435	4502.212	2774.885
594.412	15.706	4614.946	3053.202	4499.737	2773.601
595.432	15.904	4612.670	3055.112	4494.139	2770.203
596.452	16.152	4610.560	3058.493	4490.328	2767.080
597.472	16.375	4608.499	3061.294	4487.662	2766.526
598.492	16.547	4605.756	3062.555	4486.694	2767.018
599.512	16.601	4606.316	3063.891	4486.781	2769.100
600.532	16.669	4608.218	3067.107	4487.535	2772.197
601.552	16.800	4607.648	3069.523	4488.547	2775.023
602.572	16.842	4604.843	3069.329	4490.223	2778.626
603.592	16.853	4601.541	3067.084	4487.196	2777.878
604.612	16.844	4596.585	3063.173	4484.938	2776.197
605.632	16.839	4594.039	3061.122	4487.352	2778.867
606.652	16.890	4591.830	3061.322	4486.059	2779.609
607.672	16.939	4587.532	3058.622	4483.926	2776.164
608.692	16.969	4581.703	3054.389	4482.715	2774.035
609.712	16.979	4579.901	3052.594	4479.585	2769.165
610.732	17.019	4581.672	3054.677	4479.965	2768.419
611.752	17.060	4582.531	3056.080	4480.148	2770.015
612.772	17.111	4582.541	3056.916	4476.402	2767.079
613.792	17.129	4581.150	3056.713	4474.186	2764.703
614.812	17.155	4581.209	3057.258	4470.996	2762.235
615.832	17.223	4580.385	3059.018	4465.247	2755.057
616.852	17.189	4579.812	3058.840	4463.395	2751.405
617.872	17.018	4577.579	3056.482	4464.104	2755.651
618.892	16.626	4571.163	3050.303	4463.605	2761.077
619.912	15.708	4563.734	3037.391	4464.473	2765.004
620.932	13.846	4556.021	3016.860	4459.663	2761.190
621.952	11.476	4542.126	2978.971	4447.406	2729.785
622.972	9.108	4513.957	2898.805	4439.784	2704.284
623.992	7.290	4493.193	2825.202	4436.760	2701.919
625.012	6.674	4485.447	2801.123	4431.689	2696.183
626.032	6.579	4478.625	2793.819	4426.896	2692.353
627.052	6.519	4476.032	2789.215	4425.492	2691.596
628.072	6.521	4473.462	2787.723	4423.585	2689.831
629.092	6.484	4471.622	2785.950	4421.760	2688.214
630.112	6.501	4468.161	2783.847	4420.170	2688.114
631.132	6.515	4464.836	2781.851	4417.158	2687.421
632.152	6.505	4463.113	2780.047	4411.823	2683.940
633.172	6.512	4465.424	2781.274	4408.011	2680.288
634.192	6.511	4466.282	2782.075	4404.559	2679.058
635.212	6.563	4465.534	2782.235	4400.812	2677.518
636.232	6.597	4464.202	2781.669	4396.717	2672.909
637.252	6.578	4463.590	2780.565	4391.945	2668.389
638.272	6.597	4460.920	2779.639	4388.718	2666.219
639.292	6.571	4456.892	2776.678	4384.184	2664.665
640.311	6.546	4455.143	2774.455	4352.551	2650.922
641.331	6.544	4456.413	2775.565	4299.479	2619.555
642.351	6.518	4458.100	2776.873	4260.918	2593.510
643.371	6.567	4458.845	2777.796	4236.262	2577.532
644.391	6.649	4458.425	2778.210	4218.924	2564.947
645.411	6.617	4454.574	2776.220	4206.892	2557.221
646.431	6.558	4450.610	2773.260	4196.041	2550.476
647.451	6.536	4448.471	2770.754	4187.019	2544.853
648.471	6.586	4446.460	2769.763	4182.622	2541.996
649.491	6.606	4442.079	2767.145	4177.228	2539.531
650.511	6.516	4438.120	2762.620	4169.515	2535.100
651.531	6.506	4437.593	2762.186	4162.515	2530.159
652.551	6.541	4436.604	2762.504	4156.018	2526.289
653.571	6.521	4431.363	2759.051	4152.112	2523.056
654.591	6.423	4426.452	2755.081	4145.919	2520.380
655.611	6.451	4423.663	2751.494	4135.485	2513.719
656.631	6.368	4429.532	2750.535	4128.098	2507.847
657.651	6.246	4441.510	2757.738	4123.713	2504.669
658.671	6.337	4446.855	2764.890	4118.772	2501.155
659.691	6.386	4444.971	2764.332	4115.509	2499.513
660.711	6.442	4441.938	2764.539	4111.798	2497.245
661.731	6.547	4437.035	2762.986	4109.051	2495.139
662.751	6.513	4434.194	2761.015	4107.095	2494.517
663.771	6.515	4431.816	2759.274	4102.605	2492.757
664.791	6.474	4428.239	2755.441	4096.555	2488.427
665.811	6.498	4423.245	2753.398	4089.790	2483.531
666.831	6.510	4416.171	2749.430	4084.259	2478.919
667.851	6.481	4409.314	2744.156	4081.109	2477.098
668.871	6.734	4405.948	2739.440	4076.870	2474.743
669.891	7.378	4406.062	2738.794	4071.381	2471.623
670.911	8.246	4413.259	2760.728	4065.616	2469.499
671.931	8.956	4420.097	2790.632	4061.598	2468.378
672.951	9.159	4418.880	2798.698	4068.246	2487.618
673.971	9.072	4415.077	2793.647	4084.133	2545.103
674.991	9.028	4410.239	2788.854	4098.366	2604.158
676.011	9.062	4408.785	2787.448	4107.134	2636.359
677.031	9.133	4409.561	2789.302	4112.004	2654.727
678.051	9.203	4408.705	2789.598	4114.970	2664.511
679.071	9.237	4407.432	2789.260	4116.716	2669.875
680.091	9.279	4406.478	2790.247	4116.191	2670.796
681.111	9.305	4402.517	2788.471	4114.527	2669.897
682.131	9.332	4397.594	2784.614	4111.959	2667.291
683.151	9.360	4395.446	2782.398	4110.955	2665.345
684.171	9.407	4393.493	2782.769	4112.499	2665.526
685.191	9.464	4391.576	2782.170	4111.430	2666.016
686.211	9.554	4390.653	2783.049	4105.896	2662.911
687.231	9.576	4390.425	2784.162	4099.197	2657.556
688.251	9.557	4389.594	2783.593	4092.637	2652.860
689.271	9.525	4387.379	2781.763	4086.814	2648.304
690.290	9.503	4385.103	2779.854	4081.245	2644.609
691.310	9.494	4380.998	2776.793	4078.571	2641.517
692.330	9.502	4376.532	2772.971	4080.944	2643.428
693.350	9.490	4373.879	2770.055	4082.976	2646.806
694.370	9.473	4373.303	2770.459	4080.941	2646.172
695.390	9.446	4372.201	2771.024	4078.942	2644.243
696.410	9.379	4368.434	2766.765	4076.867	2643.073
697.430	9.255	4364.539	2762.432	4073.261	2640.934
698.450	9.091	4362.201	2758.087	4070.024	2637.970
699.470	8.965	4358.640	2753.797	4066.308	2635.687
700.490	8.802	4353.875	2748.570	4062.689	2632.418
701.510	8.645	4350.916	2743.592	4060.946	2630.007
702.530	8.534	4345.363	2737.003	4059.978	2630.061
703.550	8.440	4339.757	2729.967	4057.219	2628.938
704.570	8.433	4337.765	2726.841	4051.702	2624.060
705.590	8.552	4338.332	2727.680	4049.620	2621.503
706.610	8.687	4339.110	2731.133	4049.287	2621.605
707.630	8.731	4338.247	2732.738	4049.619	2622.232
708.650	8.778	4338.275	2733.707	4049.378	2622.921
709.670	8.821	4338.280	2735.114	4046.987	2621.264
710.690	8.802	4335.614	2733.775	4047.861	2621.272
711.710	8.753	4332.943	2730.186	4047.030	2621.351
712.730	8.651	4329.435	2727.626	4044.846	2620.569
713.750	8.566	4325.717	2724.143	4041.521	2618.020
714.770	8.488	4322.073	2719.714	4034.241	2613.753
715.790	8.288	4318.959	2715.345	4025.704	2606.309
716.810	8.037	4316.691	2710.359	4020.338	2601.680
717.830	7.835	4314.554	2705.084	4018.895	2599.918
718.850	7.688	4308.934	2697.058	4018.545	2600.034
719.870	7.594	4304.543	2689.061	4016.770	2599.702
720.890	7.670	4302.484	2686.834	4011.450	2596.209
721.910	7.841	4301.556	2690.087	4007.162	2591.405
722.930	7.924	4300.693	2692.352	4004.977	2590.389
723.950	7.993	4299.913	2693.484	4002.393	2589.397
724.970	8.039	4297.984	2691.989	4001.756	2587.545
725.990	8.115	4297.161	2691.972	4001.825	2587.805
727.010	8.259	4295.741	2693.670	4002.421	2589.062
728.030	8.373	4293.346	2693.803	3998.480	2587.578
729.050	8.382	4292.288	2693.473	3993.342	2583.240
730.070	8.381	4292.053	2694.346	3991.553	2580.943
731.090	8.344	4290.464	2693.562	3989.922	2581.365
732.110	8.207	4289.041	2690.479	3987.214	2579.952
733.130	8.108	4287.141	2687.035	3982.780	2575.644
734.150	8.023	4284.523	2682.511	3978.312	2572.134
735.170	8.038	4281.006	2679.779	3976.565	2569.709
736.190	8.081	4275.584	2676.839	3976.056	2569.189
737.210	8.119	4273.500	2674.620	3975.716	2569.548
738.230	8.242	4275.016	2676.100	3974.245	2568.491
739.250	8.453	4276.047	2681.015	3969.458	2565.195
740.270	8.627	4276.628	2685.547	3963.194	2560.857
741.289	8.694	4277.130	2688.080	3957.096	2556.331
742.309	8.698	4275.157	2687.668	3951.091	2551.641
743.329	8.690	4271.476	2684.811	3947.447	2547.291
744.349	8.656	4269.536	2681.959	3948.221	2546.277
745.369	8.782	4267.770	2682.268	3949.964	2548.392
746.389	8.869	4265.472	2681.335	3950.222	2549.403
747.409	8.906	4262.200	2681.119	3952.123	2550.359
748.429	8.918	4260.920	2680.376	3954.231	2552.941
749.449	8.942	4260.646	2679.937	3952.633	2552.629
750.469	8.972	4261.392	2681.084	3949.233	2550.144
751.489	9.013	4259.708	2681.374	3946.381	2548.205
752.509	9.002	4257.468	2679.867	3941.404	2545.651
753.529	9.010	4255.052	2678.951	3936.634	2540.873
754.549	8.981	4253.611	2677.964	3936.966	2539.005
755.569	8.882	4252.266	2676.034	3937.598	2540.913
756.589	8.750	4250.704	2673.207	3935.655	2540.322
757.609	8.599	4248.289	2668.395	3934.160	2538.580
758.629	8.518	4245.349	2664.414	3932.764	2537.725
759.649	8.476	4242.589	2660.782	3931.557	2536.333
760.669	8.470	4241.717	2658.492	3931.195	2536.293
761.689	8.565	4241.414	2660.699	3929.589	2535.903
762.709	8.603	4239.856	2661.445	3927.452	2534.974
763.729	8.558	4237.354	2660.159	3924.739	2533.157
764.749	8.465	4234.143	2656.945	3921.262	2530.562
765.769	8.385	4230.563	2652.436	3916.778	2526.896
766.789	8.246	4228.903	2648.725	3912.252	2523.408
767.809	8.061	4226.598	2646.756	3910.767	2521.329
768.829	7.679	4221.042	2641.480	3908.070	2519.567
769.849	6.892	4214.157	2629.741	3904.440	2516.734
770.869	6.082	4204.883	2609.972	3903.947	2516.072
771.889	5.342	4195.374	2582.338	3903.326	2515.562
772.909	4.972	4191.712	2567.402	3901.574	2514.001
773.929	4.976	4191.262	2566.482	3902.497	2514.714
774.949	4.978	4190.892	2566.368	3902.798	2516.382
775.969	5.087	4188.090	2566.382	3899.983	2514.491
776.989	5.057	4185.407	2564.661	3898.771	2512.776
778.009	5.067	4184.141	2564.262	3897.750	2512.954
779.029	5.021	4182.484	2561.877	3895.388	2510.767
780.049	5.114	4179.812	2560.983	3891.039	2507.975
781.069	5.643	4177.630	2559.366	3888.895	2505.946
782.089	6.359	4178.766	2562.835	3887.153	2505.050
783.109	7.344	4184.824	2588.693	3883.904	2502.409
784.129	8.047	4187.908	2611.711	3880.824	2499.569
785.149	8.242	4187.378	2617.214	3877.555	2497.616
786.169	8.347	4187.178	2619.104	3875.332	2495.400
787.189	8.420	4185.818	2619.100	3873.911	2494.133
788.209	8.517	4182.886	2617.954	3871.468	2492.925
789.229	8.597	4182.000	2619.109	3868.333	2490.286
790.249	8.669	4180.870	2620.432	3866.078	2488.411
791.268	8.668	4177.623	2618.437	3864.429	2487.031
792.288	8.636	4174.688	2615.689	3864.412	2486.755
793.308	8.676	4172.622	2614.368	3863.688	2486.271
794.328	8.712	4170.399	2613.170	3861.929	2485.839
795.348	8.742	4168.145	2612.854	3862.173	2485.115
796.368	8.857	4166.768	2612.515	3863.554	2485.969
797.388	9.002	4166.180	2612.698	3863.564	2486.970
798.408	9.089	4166.965	2615.701	3863.101	2485.874
799.428	9.221	4166.067	2618.285	3862.063	2484.977
800.448	9.254	4165.881	2617.680	3860.888	2484.690
801.468	9.267	4167.091	2619.887	3858.919	2483.790
802.488	9.298	4166.803	2621.815	3854.200	2480.618
803.508	9.207	4164.959	2618.677	3848.587	2475.029
804.528	9.179	4160.668	2615.076	3845.460	2471.459
805.548	9.089	4158.864	2611.328	3845.163	2471.396
806.568	9.032	4157.527	2609.460	3843.847	2470.677
807.588	9.036	4156.290	2608.822	3840.836	2468.857
808.608	9.012	4155.429	2607.369	3839.163	2466.840
809.628	9.007	4154.975	2607.008	3838.163	2466.582
810.648	9.027	4153.884	2606.640	3832.395	2463.901
811.668	9.015	4150.850	2604.543	3825.854	2457.391
812.688	9.004	4147.224	2601.489	3823.513	2454.564
813.708	8.986	4145.346	2599.611	3823.208	2454.718
814.728	8.926	4142.870	2597.685	3823.012	2453.941
815.748	8.832	4139.990	2595.894	3822.950	2453.367
816.768	8.657	4136.146	2590.772	3820.748	2452.216
817.788	8.565	4132.295	2584.923	3818.689	2451.115
818.808	8.550	4128.866	2579.874	3814.178	2448.409
819.828	8.651	4127.331	2579.623	3807.989	2443.240
820.848	8.726	4128.389	2581.759	3804.295	2437.959
821.868	8.787	4130.123	2585.258	3801.688	2435.683
822.888	8.819	4129.842	2586.934	3799.263	2433.752
823.908	8.767	4129.585	2585.834	3795.124	2430.312
824.928	8.753	4127.938	2584.841	3787.699	2423.018
825.948	8.727	4126.494	2583.492	3782.787	2415.816
826.968	8.659	4122.913	2580.558	3780.947	2412.851
827.988	8.545	4118.387	2575.077	3779.988	2412.787
829.008	8.523	4114.958	2570.378	3776.957	2412.678
830.028	8.587	4113.467	2568.994	3775.110	2413.330
831.048	8.703	4112.994	2570.280	3774.864	2415.099
832.068	8.811	4111.611	2571.442	3774.227	2416.470
833.088	8.904	4111.487	2572.212	3772.023	2416.334
834.108	8.987	4112.374	2574.633	3768.511	2415.164
835.128	9.057	4110.743	2576.076	3765.633	2414.120
836.148	9.045	4109.735	2575.900	3765.093	2413.287
837.168	9.023	4107.793	2574.166	3766.639	2414.475
838.188	8.956	4103.157	2569.978	3766.676	2416.377
839.208	8.871	4098.567	2565.837	3763.335	2414.992
840.228	8.828	4095.382	2562.667	3757.973	2411.701
841.247	8.837	4092.500	2559.096	3750.953	2407.186
842.267	8.901	4091.814	2557.530	3747.772	2403.246
843.287	9.074	4092.120	2561.206	3745.988	2402.577
844.307	9.171	4089.746	2563.474	3743.257	2401.564
845.327	9.190	4088.181	2562.620	3738.192	2397.792
846.347	9.262	4089.342	2562.610	3734.408	2395.225
847.367	9.367	4089.897	2565.277	3734.010	2395.108
848.387	9.418	4088.566	2566.911	3733.124	2394.091
849.407	9.386	4085.654	2564.825	3731.967	2393.569
850.427	9.317	4083.879	2562.726	3732.747	2394.438
851.447	9.237	4082.151	2560.330	3730.716	2394.178
852.467	9.168	4079.958	2557.048	3727.916	2392.083
853.487	9.133	4078.271	2554.079	3725.214	2390.342
854.507	9.166	4077.185	2553.740	3720.056	2386.217
855.527	9.257	4074.839	2552.734	3719.084	2384.029
856.547	9.321	4073.392	2552.069	3720.026	2385.725
857.567	9.448	4074.708	2554.796	3719.504	2386.220
858.587	9.569	4075.822	2557.886	3720.193	2385.700
859.607	9.645	4073.417	2558.096	3720.851	2385.936
860.627	9.706	4070.577	2558.033	3721.235	2387.132
861.647	9.711	4068.189	2557.908	3720.727	2387.311
862.667	9.657	4065.156	2555.397	3719.350	2386.479
863.687	9.523	4060.911	2550.774	3717.253	2384.870
864.707	9.392	4057.811	2544.954	3713.590	2382.745
865.727	9.342	4055.389	2541.756	3708.797	2379.135
866.747	9.247	4054.477	2540.712	3704.419	2375.794
867.767	9.063	4052.720	2538.944	3703.376	2373.483
868.787	8.788	4048.769	2531.857	3702.865	2373.618
869.807	8.542	4044.022	2523.085	3701.654	2373.470
870.827	8.356	4041.231	2517.220	3699.607	2372.413
871.847	8.237	4038.743	2513.254	3697.423	2371.528
872.867	8.148	4036.398	2510.505	3695.848	2369.283
873.887	8.111	4032.866	2507.215	3694.501	2368.402
874.907	8.140	4030.183	2503.342	3691.815	2367.076
875.927	8.267	4028.854	2502.178	3687.217	2364.168
876.947	8.404	4029.091	2504.328	3683.769	2361.458
877.967	8.561	4029.831	2509.136	3681.141	2359.922
878.987	8.643	4028.624	2511.416	3680.355	2358.774
880.007	8.622	4025.798	2508.868	3681.533	2359.620
881.027	8.602	4025.283	2507.152	3680.794	2360.346
882.047	8.654	4025.123	2507.984	3677.690	2358.386
883.067	8.687	4023.987	2507.878	3672.244	2354.769
884.087	8.758	4022.276	2506.173	3669.612	2351.339
885.107	8.900	4022.704	2506.345	3669.678	2350.831
886.127	9.006	4025.048	2512.027	3668.939	2351.099
887.147	8.637	4026.634	2519.684	3666.554	2349.346
888.167	7.951	4020.995	2513.775	3663.259	2346.929
889.187	7.093	4010.510	2484.091	3661.745	2345.268
890.207	6.457	4003.857	2459.949	3662.059	2345.324
891.227	6.374	4000.507	2456.129	3662.480	2346.419
892.246	6.371	3998.464	2454.917	3660.967	2346.245
893.266	6.391	3997.402	2453.938	3660.034	2345.075
894.286	6.399	3996.532	2453.273	3659.812	2345.056
895.306	6.410	3995.946	2453.191	3657.302	2343.990
896.326	6.666	3993.430	2452.314	3652.987	2340.684
897.346	7.143	3991.561	2450.654	3649.673	2337.116
898.366	7.746	3996.188	2461.791	3648.913	2336.747
899.386	8.366	4000.178	2481.701	3649.009	2336.631
900.406	8.584	4001.039	2489.412	3648.434	2337.078
901.426	8.635	4001.435	2490.894	3647.482	2336.316
902.446	8.671	4002.070	2491.857	3645.535	2335.234
903.466	8.698	4000.198	2491.039	3643.009	2333.428
904.486	8.669	3997.587	2488.308	3640.810	2331.814
905.506	8.650	3994.923	2487.251	3638.317	2330.299
906.526	8.594	3991.391	2485.330	3634.878	2327.525
907.546	8.492	3987.394	2480.756	3630.821	2323.850
908.566	8.399	3984.341	2475.230	3629.591	2322.409
909.586	8.423	3982.079	2472.739	3630.079	2322.577
910.606	8.510	3980.017	2472.490	3631.119	2323.972
911.626	8.617	3978.366	2472.448	3631.995	2325.002
912.646	8.779	3977.177	2473.706	3632.200	2325.342
913.666	8.899	3977.079	2476.832	3628.381	2323.763
914.686	9.016	3975.402	2478.360	3623.427	2319.196
915.706	9.057	3974.157	2477.753	3620.001	2316.062
916.726	9.126	3972.642	2478.202	3617.382	2314.269
917.746	9.204	3970.735	2477.863	3616.632	2313.800
918.766	9.230	3968.282	2476.657	3616.519	2314.184
919.786	9.255	3966.057	2476.183	3614.914	2312.686
920.806	9.254	3964.404	2475.337	3612.425	2311.395
921.826	9.227	3964.900	2474.805	3610.933	2310.291
922.846	9.210	3964.208	2474.565	3608.251	2308.693
923.866	9.145	3961.794	2472.271	3605.214	2306.353
924.886	9.007	3959.377	2469.381	3601.516	2303.044
925.906	8.866	3957.099	2465.985	3599.384	2300.713
926.926	8.725	3955.116	2461.514	3596.547	2299.335
927.946	8.661	3952.795	2458.300	3594.448	2298.029
928.966	8.671	3949.951	2455.707	3595.536	2298.328
929.986	8.714	3945.717	2452.471	3596.701	2299.206
931.006	8.806	3943.176	2451.114	3596.423	2300.120
932.026	8.911	3942.784	2452.200	3595.931	2300.509
933.046	9.029	3941.718	2453.401	3595.215	2300.604
934.066	9.099	3940.542	2454.878	3593.745	2299.300
935.086	9.178	3939.454	2455.720	3591.148	2297.351
936.106	9.282	3937.838	2454.692	3589.180	2294.960
937.126	9.348	3936.291	2454.635	3590.032	2295.334
938.146	9.429	3934.441	2455.605	3590.065	2296.467
939.166	9.441	3931.788	2453.940	3584.594	2293.450
940.186	9.435	3930.375	2453.176	3580.413	2289.188
941.206	9.470	3928.160	2451.842	3583.320	2290.391
942.225	9.426	3926.385	2450.656	3586.324	2294.003
943.245	9.362	3925.699	2450.121	3583.150	2292.786
944.265	9.363	3926.044	2449.775	3577.455	2288.320
945.285	9.341	3924.747	2447.733	3573.744	2284.162
946.305	9.321	3922.423	2446.297	3572.659	2282.564
947.325	9.270	3920.573	2445.884	3573.570	2283.262
948.345	9.035	3917.514	2442.983	3573.854	2284.286
949.365	8.646	3913.795	2436.732	3571.715	2283.686
950.385	8.074	3910.448	2427.057	3571.178	2282.907
951.405	7.365	3905.946	2415.441	3568.763	2282.249
952.425	6.833	3899.911	2399.139	3564.414	2278.717
953.445	6.604	3895.668	2383.076	3560.308	2274.597
954.465	6.704	3893.878	2381.716	3558.178	2272.706
955.485	6.907	3892.795	2387.582	3556.920	2272.223
956.505	7.024	3890.587	2388.322	3555.457	2271.741
957.525	7.046	3888.746	2385.745	3554.343	2270.694
958.545	7.165	3887.929	2386.607	3552.098	2269.437
959.565	7.381	3886.676	2388.600	3549.176	2266.791
960.585	7.560	3886.162	2390.305	3545.623	2263.624
961.605	7.753	3886.749	2394.758	3542.805	2260.988
962.625	7.945	3888.035	2398.793	3541.562	2259.827
963.645	8.151	3888.246	2400.426	3540.529	2258.592
964.665	8.346	3890.074	2404.036	3539.007	2256.915
965.685	8.553	3890.517	2409.045	3536.391	2255.293
966.705	8.662	3889.389	2410.299	3533.326	2253.778
967.725	8.741	3887.491	2410.347	3529.028	2250.606
968.745	8.808	3886.454	2411.594	3527.693	2248.170
969.765	8.899	3884.161	2412.165	3528.830	2249.332
970.785	8.904	3882.419	2410.813	3526.850	2248.509
971.805	8.913	3881.331	2409.542	3523.605	2245.928
972.825	8.970	3879.393	2408.498	3522.590	2245.082
973.845	9.040	3878.924	2408.883	3522.678	2245.495
974.865	9.175	3879.388	2411.057	3522.565	2245.927
975.885	9.282	3879.742	2412.587	3521.122	2243.790
976.905	9.411	3879.645	2414.649	3518.094	2236.777
977.925	9.526	3880.432	2417.156	3513.408	2225.640
978.945	9.649	3880.628	2420.014	3503.803	2203.593
979.965	9.762	3877.477	2419.399	3485.404	2161.232
980.985	9.795	3874.053	2417.072	3469.190	2102.390
982.005	9.838	3870.787	2416.262	3460.390	2068.259
983.025	9.803	3868.433	2414.902	3456.223	2062.811
984.045	9.750	3866.343	2413.409	3454.198	2059.608
985.065	9.633	3865.533	2410.552	3451.333	2059.088
986.085	9.593	3864.567	2408.896	3448.804	2056.561
987.105	9.557	3863.936	2407.335	3450.000	2056.483
988.125	9.542	3862.716	2406.107	3449.657	2057.627
989.145	9.541	3861.235	2405.501	3446.355	2055.126
990.165	9.478	3858.878	2403.604	3443.069	2053.441
991.185	9.418	3855.392	2401.293	3440.337	2052.017
992.205	9.350	3852.387	2396.389	3438.955	2049.744
993.224	9.377	3851.213	2393.109	3439.880	2049.145
994.244	9.523	3851.016	2393.670	3441.350	2051.003
995.264	9.754	3850.023	2397.057	3439.308	2050.293
996.284	9.700	3849.741	2401.560	3436.579	2048.304
997.304	9.156	3848.424	2403.251	3435.607	2047.236
998.324	8.392	3840.657	2388.734	3434.770	2047.142
999.344	7.638	3832.121	2362.364	3433.970	2046.498
1000.364	7.282	3828.335	2349.348	3432.858	2046.094
1001.384	7.246	3825.939	2347.271	3431.789	2045.490
1002.404	7.242	3823.911	2345.476	3428.279	2043.572
1003.424	7.231	3823.175	2344.346	3421.890	2038.976
1004.444	7.234	3821.681	2343.875	3417.986	2034.720
1005.464	7.231	3820.451	2342.817	3417.794	2034.257
1006.484	7.248	3820.515	2342.606	3418.816	2035.690
1007.504	7.264	3820.126	2343.040	3420.096	2037.240
1008.524	7.331	3817.657	2342.744	3419.528	2037.417
1009.544	7.342	3815.162	2340.788	3416.302	2035.681
1010.564	7.340	3811.970	2338.300	3414.560	2033.559
1011.584	7.332	3810.576	2337.040	3415.346	2034.691
1012.604	7.270	3808.794	2336.089	3417.029	2035.995
1013.624	7.302	3805.868	2334.734	3417.012	2036.577
1014.644	7.283	3802.899	2330.265	3411.011	2037.205
1015.664	7.180	3800.837	2329.070	3405.693	2032.079
1016.684	7.339	3786.861	2326.966	3403.449	2029.449
1017.704	7.302	3752.719	2305.298	3400.231	2029.846
1018.724	7.091	3723.484	2281.649	3397.398	2028.102
1019.744	7.068	3712.318	2273.361	3393.785	2025.570
1020.764	7.072	3707.544	2270.425	3388.909	2022.103
1021.784	7.086	3702.271	2268.119	3386.071	2019.375
1022.804	7.037	3695.389	2263.231	3384.292	2018.730
1023.824	6.986	3689.369	2258.949	3382.080	2016.652
1024.844	7.013	3684.285	2256.559	3379.854	2014.968
1025.864	7.024	3678.870	2251.812	3378.501	2014.605
1026.884	7.045	3676.895	2250.066	3376.839	2013.409
1027.904	7.072	3675.921	2250.239	3375.372	2011.932
1028.924	7.067	3672.248	2247.897	3374.963	2012.103
1029.944	7.064	3670.006	2246.671	3375.850	2013.098
1030.964	7.081	3668.249	2246.028	3376.611	2013.183
1031.984	7.076	3664.141	2243.648	3381.691	2026.059
1033.004	7.084	3657.329	2239.395	3387.043	2048.323
1034.024	7.041	3655.581	2236.648	3385.435	2055.143
1035.044	7.047	3655.927	2237.377	3382.595	2050.876
1036.064	7.021	3652.926	2235.723	3379.156	2045.544
1037.084	7.024	3649.857	2233.205	3375.320	2039.912
1038.104	7.099	3648.428	2233.042	3373.077	2037.105
1039.124	7.102	3645.669	2231.242	3371.203	2037.410
1040.144	7.107	3640.554	2228.554	3369.636	2038.038
1041.164	7.092	3634.629	2224.107	3368.973	2038.009
1042.184	7.002	3631.605	2220.606	3367.768	2037.268
1043.203	7.034	3631.474	2221.144	3366.176	2036.305
1044.223	7.092	3629.517	2220.599	3364.374	2035.088
1045.243	7.052	3626.749	2218.460	3363.329	2035.525
1046.263	7.088	3623.585	2216.219	3361.599	2035.698
1047.283	7.188	3619.925	2213.941	3359.328	2035.588
1048.303	8.053	3618.866	2213.955	3356.972	2034.245
1049.323	9.762	3624.155	2220.026	3353.458	2031.417
1050.343	12.115	3639.097	2260.592	3351.173	2027.930
1051.363	14.594	3655.909	2322.534	3349.262	2025.933
1052.383	16.105	3665.821	2362.351	3346.939	2023.293
1053.403	16.940	3671.125	2384.036	3344.892	2020.448
1054.423	17.326	3673.386	2394.564	3342.184	2017.249
1055.443	17.504	3672.422	2399.285	3341.362	2014.577
1056.463	17.547	3670.116	2399.445	3341.131	2013.243
1057.483	17.528	3668.149	2397.523	3338.480	2010.155
1058.503	17.504	3669.377	2397.151	3334.881	2007.099
1059.523	17.510	3670.259	2398.153	3331.277	2004.759
1060.543	17.506	3666.827	2396.236	3329.349	2002.661
1061.563	17.544	3661.869	2392.916	3328.670	2002.314
1062.583	17.531	3658.223	2389.422	3326.842	2000.237
1063.603	17.504	3654.251	2386.303	3324.253	1997.428
1064.623	17.483	3652.762	2384.863	3321.317	1994.545
1065.643	17.515	3651.749	2384.556	3315.140	1988.293
1066.663	17.562	3647.306	2382.384	3308.667	1979.854
1067.683	17.552	3642.770	2378.711	3305.865	1975.602
1068.703	17.570	3640.973	2377.297	3303.650	1972.992
1069.723	17.611	3639.487	2376.572	3299.967	1968.070
1070.743	17.626	3636.812	2374.431	3298.161	1963.297
1071.763	17.614	3635.804	2373.378	3297.288	1960.762
1072.783	17.645	3635.861	2374.067	3294.501	1957.383
1073.803	17.647	3634.853	2373.764	3291.534	1953.760
1074.823	17.636	3633.806	2373.121	3289.402	1953.114
1075.843	17.621	3633.999	2372.467	3286.973	1950.087
1076.863	17.699	3632.009	2372.085	3285.078	1942.105
1077.883	17.731	3626.696	2368.600	3286.584	1944.016
1078.903	17.687	3620.643	2363.914	3288.062	1956.515
1079.923	17.658	3616.110	2359.967	3288.339	1965.638
1080.943	17.630	3612.912	2357.578	3289.187	1973.119
1081.963	17.565	3611.045	2355.361	3288.921	1979.051
1082.983	17.531	3610.567	2354.350	3288.685	1981.146
1084.003	17.578	3609.755	2354.490	3288.749	1981.939
1085.023	17.624	3609.974	2354.321	3286.467	1980.316
1086.043	17.655	3611.433	2355.070	3285.320	1978.550
1087.063	17.680	3611.114	2356.061	3286.077	1980.542
1088.083	17.652	3608.264	2354.927	3284.578	1981.342
1089.103	17.628	3604.400	2351.591	3283.576	1979.534
1090.123	17.630	3603.396	2349.556	3282.254	1979.118
1091.143	17.629	3604.957	2350.559	3281.044	1978.127
1092.163	17.639	3604.176	2351.343	3278.750	1976.336
1093.183	17.660	3599.609	2349.092	3274.552	1973.502
1094.202	17.665	3594.207	2344.767	3270.727	1968.080
1095.222	17.633	3591.773	2341.774	3270.256	1966.636
1096.242	17.655	3590.103	2340.977	3269.608	1966.684
1097.262	17.626	3587.225	2338.625	3267.275	1963.752
1098.282	17.604	3585.124	2337.296	3264.089	1960.416
1099.302	17.549	3582.487	2335.020	3261.021	1956.290
1100.322	17.532	3579.849	2333.183	3257.543	1952.503
1101.342	17.549	3578.730	2332.668	3255.884	1950.327
1102.362	17.570	3574.677	2330.538	3256.455	1950.715
1103.382	17.519	3568.671	2325.534	3256.892	1951.774
1104.402	17.458	3565.040	2320.792	3256.800	1953.483
1105.422	17.467	3566.143	2320.795	3255.961	1955.764
1106.442	17.538	3567.180	2322.973	3254.139	1955.788
1107.462	17.568	3565.260	2322.563	3252.776	1955.729
1108.482	17.543	3563.404	2320.561	3251.856	1955.145
1109.502	17.553	3562.507	2320.451	3250.870	1954.727
1110.522	17.561	3560.142	2318.857	3249.107	1953.802
1111.542	17.520	3557.844	2316.436	3246.165	1951.976
1112.562	17.503	3557.560	2315.864	3243.966	1949.120
1113.582	17.521	3556.191	2315.402	3242.412	1947.606
1114.602	17.509	3554.613	2313.290	3241.308	1946.135
1115.622	17.555	3554.120	2312.984	3242.054	1945.330
1116.642	17.574	3553.490	2313.468	3241.943	1945.376
1117.662	17.572	3550.577	2311.867	3239.731	1941.418
1118.682	17.530	3546.257	2308.280	3237.752	1938.090
1119.702	17.475	3542.837	2305.147	3236.256	1935.905
1120.722	17.455	3541.613	2303.864	3234.337	1933.113
1121.742	17.452	3541.639	2303.254	3232.943	1931.429
1122.762	17.515	3542.192	2304.409	3231.760	1931.457
1123.782	17.539	3542.870	2304.845	3231.141	1932.789
1124.802	17.560	3541.670	2304.598	3230.168	1933.482
1125.822	17.569	3538.893	2302.905	3227.687	1931.926
1126.842	17.560	3536.406	2300.831	3224.479	1929.603
1127.862	17.565	3534.898	2300.072	3221.924	1927.616
1128.882	17.563	3532.846	2298.614	3221.150	1926.674
1129.902	17.547	3529.084	2296.294	3218.934	1925.603
1130.922	17.512	3524.985	2292.703	3214.190	1922.294
1131.942	17.467	3522.361	2289.797	3205.246	1909.768
1132.962	17.519	3520.313	2288.834	3196.878	1891.090
1133.982	17.534	3519.198	2287.816	3194.045	1881.855
1135.002	17.515	3518.588	2287.180	3192.510	1880.912
1136.022	17.481	3518.458	2286.336	3189.681	1879.137
1137.042	17.541	3516.907	2286.603	3189.160	1877.886
1138.062	17.505	3513.951	2284.170	3191.039	1878.887
1139.082	17.452	3512.042	2282.246	3192.344	1880.458
1140.102	17.473	3511.830	2282.766	3191.883	1880.667
1141.122	17.499	3509.803	2281.605	3192.169	1881.432
1142.142	17.450	3509.743	2279.833	3196.750	1898.518
1143.162	17.469	3509.785	2280.155	3201.392	1919.123
1144.181	17.461	3509.799	2280.442	3201.973	1921.374
1145.201	17.473	3509.881	2280.563	3200.354	1916.575
1146.221	17.534	3508.713	2280.082	3198.271	1912.475
1147.241	17.530	3508.032	2279.062	3194.195	1909.737
1148.261	17.558	3506.696	2278.981	3191.356	1907.470
1149.281	17.531	3502.388	2276.307	3189.283	1905.597
1150.301	17.490	3497.699	2272.468	3187.674	1904.388
1151.321	17.474	3494.423	2269.441	3187.401	1904.675
1152.341	17.477	3491.208	2267.403	3186.371	1903.721
1153.361	17.462	3488.010	2264.568	3182.484	1900.002
1154.381	17.431	3487.372	2263.207	3177.839	1893.713
1155.401	17.422	3489.968	2264.945	3174.477	1888.711
1156.421	17.464	3489.789	2266.071	3172.936	1887.537
1157.441	17.511	3486.026	2264.010	3173.097	1888.917
1158.461	17.495	3481.074	2260.458	3173.335	1890.045
1159.481	17.434	3478.201	2257.229	3172.051	1890.830
1160.501	17.397	3478.070	2256.631	3170.997	1891.530
1161.521	17.404	3476.385	2256.214	3170.389	1894.133
1162.541	17.447	3473.250	2254.237	3169.383	1897.977
1163.561	17.449	3470.650	2251.876	3168.286	1899.877
1164.581	17.436	3469.104	2250.002	3167.005	1899.141
1165.601	17.436	3469.219	2250.120	3165.871	1898.259
1166.621	17.443	3468.916	2249.986	3163.858	1899.186
1167.641	17.454	3466.300	2248.573	3162.025	1898.888
1168.661	17.416	3463.529	2246.102	3160.530	1899.174
1169.681	17.345	3463.650	2245.040	3161.212	1899.445
1170.701	17.365	3464.590	2246.263	3162.380	1899.695
1171.721	17.414	3462.437	2245.458	3159.847	1897.149
1172.741	17.389	3459.297	2243.133	3157.140	1893.686
1173.761	17.331	3456.669	2240.809	3154.743	1891.097
1174.781	17.375	3453.450	2239.050	3152.995	1887.782
1175.801	17.379	3449.756	2235.822	3152.549	1887.024
1176.821	17.350	3446.929	2233.010	3151.516	1885.626
1177.841	17.315	3446.403	2231.508	3150.238	1884.976
1178.861	17.280	3447.748	2232.114	3148.947	1885.134
1179.881	17.316	3446.584	2232.820	3147.449	1885.336
1180.901	17.286	3442.273	2229.442	3146.523	1885.304
1181.921	17.254	3439.829	2226.731	3144.567	1884.943
1182.941	17.280	3438.690	2226.710	3141.856	1883.033
1183.961	17.272	3437.979	2225.961	3140.956	1879.753
1184.981	17.269	3437.374	2225.071	3140.260	1878.578
1186.001	17.277	3434.275	2223.702	3139.080	1878.782
1187.021	17.247	3430.871	2221.174	3137.129	1876.217
1188.041	17.263	3428.961	2219.110	3134.394	1872.056
1189.061	17.247	3425.821	2216.251	3132.837	1869.200
1190.081	17.208	3423.977	2214.098	3134.089	1869.859
1191.101	17.181	3422.953	2213.278	3135.428	1871.851
1192.121	17.121	3421.883	2212.447	3134.493	1872.180
1193.141	17.099	3418.893	2210.444	3133.427	1871.559
1194.161	17.079	3414.581	2206.813	3132.412	1871.681
1195.180	16.998	3414.121	2204.776	3130.723	1870.895
1196.200	16.996	3415.207	2206.369	3127.483	1868.625
1197.220	16.962	3412.447	2204.774	3124.363	1864.958
1198.240	16.851	3407.628	2200.197	3121.616	1862.291
1199.260	16.763	3400.159	2194.711	3118.576	1858.884
1200.280	16.617	3393.479	2188.169	3115.133	1854.967
1201.300	16.429	3390.411	2182.779	3113.229	1851.918
1202.320	16.324	3389.257	2179.968	3113.218	1852.626
1203.340	16.281	3388.930	2177.459	3112.006	1853.278
1204.360	16.353	3391.065	2177.576	3111.033	1853.007
1205.380	16.611	3391.066	2181.901	3111.175	1853.410
1206.400	16.756	3387.993	2182.754	3110.748	1853.708
1207.420	16.752	3386.554	2181.287	3108.835	1853.152
1208.440	16.860	3385.597	2183.087	3107.525	1852.845
1209.460	17.000	3381.457	2182.036	3106.471	1851.803
1210.480	16.978	3378.949	2178.392	3104.594	1848.772
1211.500	17.002	3382.387	2181.160	3103.476	1846.176
1212.520	17.134	3384.082	2185.967	3103.094	1844.970
1213.540	17.152	3381.502	2185.019	3102.894	1847.051
1214.560	17.121	3380.817	2183.412	3102.218	1849.142
1215.580	17.190	3379.449	2183.829	3100.380	1849.562
1216.600	17.188	3377.540	2182.652	3098.748	1848.627
1217.620	17.219	3376.330	2181.868	3097.453	1847.384
1218.640	17.289	3375.167	2181.121	3096.229	1846.962
1219.660	17.280	3374.277	2180.553	3094.629	1845.663
1220.680	17.275	3374.549	2181.060	3093.683	1845.180
1221.700	17.319	3374.480	2181.634	3092.414	1844.414
1222.720	17.361	3371.656	2180.816	3090.750	1843.193
1223.740	17.331	3366.985	2177.090	3088.613	1842.609
1224.760	17.281	3364.409	2174.202	3086.019	1841.531
1225.780	17.339	3362.063	2173.202	3083.830	1840.008
1226.800	17.391	3361.088	2172.317	3082.057	1839.780
1227.820	17.422	3361.162	2172.704	3082.531	1840.688
1228.840	17.428	3359.527	2172.009	3082.062	1841.605
1229.860	17.400	3357.868	2170.605	3078.775	1838.607
1230.880	17.406	3357.159	2170.225	3076.050	1835.615
1231.900	17.403	3357.527	2169.811	3071.715	1833.510
1232.920	17.423	3357.306	2170.695	3067.806	1828.153
1233.940	17.422	3355.714	2169.812	3066.796	1824.431
1234.960	17.445	3354.088	2168.783	3065.858	1824.098
1235.980	17.425	3352.474	2167.520	3063.947	1822.423
1237.000	17.418	3350.073	2165.905	3062.382	1820.184
1238.020	17.399	3347.713	2163.679	3061.330	1819.703
1239.040	17.414	3345.138	2162.156	3059.281	1818.641
1240.060	17.425	3344.362	2161.583	3057.779	1817.442
1241.080	17.435	3344.548	2161.466	3055.355	1815.684
1242.100	17.429	3344.679	2161.515	3053.564	1812.610
1243.120	17.431	3344.011	2160.991	3050.600	1809.739
1244.140	17.478	3341.566	2160.043	3048.361	1807.146
1245.159	17.472	3339.941	2158.778	3046.493	1805.560
1246.179	17.467	3339.443	2157.786	3041.673	1801.903
1247.199	17.481	3338.995	2157.334	3035.890	1792.602
1248.219	17.488	3338.396	2157.188	3028.157	1773.342
1249.239	17.524	3336.782	2156.708	3024.067	1755.300
1250.259	17.541	3333.405	2154.855	3023.377	1752.649
1251.279	17.493	3330.745	2151.434	3023.385	1752.967
1252.299	17.482	3328.757	2150.279	3022.105	1751.829
1253.319	17.511	3326.227	2148.945	3021.185	1752.667
1254.339	17.492	3325.154	2147.529	3021.528	1751.052
1255.359	17.464	3324.579	2147.390	3021.845	1751.444
1256.379	17.451	3323.253	2146.539	3021.585	1750.690
1257.399	17.459	3320.770	2144.897	3020.972	1750.076
1258.419	17.442	3318.029	2142.521	3020.607	1750.803
1259.439	17.444	3317.094	2141.725	3023.685	1760.467
1260.459	17.478	3317.025	2142.178	3025.969	1776.502
1261.479	17.491	3314.287	2140.636	3027.250	1785.864
1262.499	17.478	3310.940	2137.405	3028.276	1791.032
1263.519	17.501	3308.774	2136.006	3027.423	1792.407
1264.539	17.540	3306.818	2135.150	3026.300	1791.781
1265.559	17.506	3305.374	2132.966	3026.478	1793.227
1266.579	17.513	3305.362	2133.011	3027.092	1795.040
1267.599	17.529	3302.742	2132.018	3026.837	1795.383
1268.619	17.479	3299.083	2128.874	3025.875	1794.392
1269.639	17.466	3297.488	2127.750	3024.960	1792.631
1270.659	17.444	3297.580	2126.874	3023.901	1791.546
1271.679	17.475	3297.243	2127.370	3022.509	1790.971
1272.699	17.504	3296.822	2127.375	3022.022	1791.844
1273.719	17.496	3294.939	2126.223	3021.251	1793.212
1274.739	17.456	3292.079	2124.424	3019.848	1794.214
1275.759	17.465	3290.839	2122.803	3018.948	1794.421
1276.779	17.508	3290.815	2122.419	3019.028	1794.670
1277.799	17.542	3288.927	2122.194	3019.991	1795.501
1278.819	17.513	3286.779	2120.120	3019.812	1795.354
1279.839	17.514	3284.731	2118.624	3018.964	1794.755
1280.859	17.501	3282.062	2116.953	3018.247	1793.559
1281.879	17.455	3280.285	2115.550	3017.241	1792.377
1282.899	17.407	3282.152	2115.569	3014.003	1791.367
1283.919	17.418	3283.973	2117.523	3010.016	1787.532
1284.939	17.420	3284.206	2118.517	3007.501	1783.582
1285.959	17.458	3283.027	2117.960	3005.878	1782.325
1286.979	17.504	3281.667	2116.695	3005.148	1781.539
1287.999	17.521	3280.135	2115.247	3003.339	1780.968
1289.019	17.551	3277.773	2113.975	3000.228	1779.357
1290.039	17.579	3274.436	2112.248	2997.201	1776.465
1291.059	17.565	3270.566	2109.221	2995.589	1773.636
1292.079	17.531	3268.004	2106.577	2995.149	1770.691
1293.099	17.493	3266.187	2104.784	2994.255	1768.405
1294.119	17.506	3263.896	2103.622	2993.189	1767.156
1295.139	17.516	3262.756	2102.295	2992.397	1765.819
1296.158	17.556	3262.398	2102.450	2991.707	1765.331
1297.178	17.584	3262.821	2102.419	2990.552	1765.128
1298.198	17.624	3264.671	2104.581	2988.392	1765.762
1299.218	17.586	3266.457	2105.768	2987.394	1766.223
1300.238	17.623	3265.726	2105.804	2986.121	1766.254
1301.258	17.642	3265.085	2105.011	2983.846	1765.369
1302.278	17.626	3264.295	2104.586	2979.664	1761.367
1303.298	17.584	3261.641	2102.534	2976.398	1757.767
1304.318	17.551	3258.550	2100.002	2975.101	1755.577
1305.338	17.601	3254.569	2097.844	2974.034	1753.567
1306.358	17.579	3251.914	2095.717	2972.113	1751.703
1307.378	17.546	3249.314	2093.576	2971.178	1751.347
1308.398	17.620	3244.847	2091.390	2969.972	1749.565
1309.418	17.590	3241.506	2088.092	2967.956	1745.800
1310.438	17.532	3240.379	2086.367	2965.635	1742.822
1311.458	17.511	3238.878	2085.235	2963.926	1741.869
1312.478	17.547	3237.320	2084.686	2963.977	1743.618
1313.498	17.565	3235.628	2083.205	2964.572	1747.267
1314.518	17.583	3234.438	2081.494	2963.187	1750.269
1315.538	17.593	3236.118	2082.778	2961.426	1749.532
1316.558	17.643	3238.353	2085.327	2961.655	1750.382
1317.578	17.657	3238.360	2085.988	2960.852	1752.750
1318.598	17.624	3236.491	2084.438	2960.405	1752.097
1319.618	17.609	3234.925	2082.815	2959.708	1752.492
1320.638	17.604	3234.479	2082.236	2958.098	1751.670
1321.658	17.607	3233.908	2082.450	2957.162	1750.306
1322.678	17.602	3232.513	2081.829	2956.475	1750.615
1323.698	17.572	3230.955	2080.334	2953.243	1747.969
1324.718	17.586	3229.260	2078.902	2950.716	1743.773
1325.738	17.606	3228.357	2077.831	2950.907	1742.593
1326.758	17.614	3226.910	2077.264	2950.625	1742.205
1327.778	17.619	3224.773	2076.554	2949.513	1741.871
1328.798	17.644	3220.581	2073.818	2949.694	1743.280
1329.818	17.638	3215.449	2069.572	2950.245	1746.148
1330.838	17.588	3213.837	2067.196	2952.038	1748.682
1331.858	17.620	3215.120	2068.333	2954.633	1752.045
1332.878	17.646	3214.989	2068.855	2953.720	1753.629
1333.898	17.610	3214.504	2067.787	2952.658	1753.009
1334.918	17.628	3214.830	2068.104	2952.980	1754.656
1335.938	17.635	3214.718	2068.499	2952.356	1755.507
1336.958	17.585	3214.136	2068.222	2950.608	1754.102
1337.978	17.543	3213.749	2067.523	2949.232	1752.297
1338.998	17.569	3213.769	2067.425	2947.571	1751.157
1340.018	17.589	3210.944	2065.811	2945.637	1750.145
1341.038	17.577	3206.468	2062.161	2944.230	1749.782
1342.058	17.530	3205.345	2059.851	2942.993	1749.365
1343.078	17.539	3205.424	2059.445	2940.884	1748.803
1344.098	17.547	3204.328	2059.050	2938.893	1746.556
1345.118	17.509	3202.570	2057.755	2938.631	1745.168
1346.137	17.508	3200.284	2055.987	2937.836	1744.952
1347.157	17.542	3197.612	2054.204	2935.410	1742.376
1348.177	17.559	3195.954	2052.764	2933.097	1739.684
1349.197	17.560	3194.805	2051.993	2932.633	1739.197
1350.217	17.534	3195.251	2052.412	2931.622	1738.739
1351.237	17.451	3196.158	2053.652	2929.816	1737.400
1352.257	17.217	3195.522	2052.800	2928.151	1735.229
1353.277	16.720	3193.327	2049.384	2926.201	1733.490
1354.297	15.739	3189.300	2040.760	2925.306	1731.643
1355.317	13.893	3182.773	2025.065	2925.431	1731.538
1356.337	11.630	3170.703	1998.256	2924.575	1731.262
1357.357	9.375	3154.543	1948.965	2922.238	1730.507
1358.377	7.752	3142.238	1904.241	2918.357	1730.036
1359.397	7.226	3137.366	1889.260	2911.228	1719.512
1360.417	7.125	3133.878	1885.035	2905.764	1699.796
1361.437	7.058	3130.921	1881.763	2903.388	1688.987
1362.457	7.044	3127.967	1879.716	2902.032	1688.248
1363.477	7.043	3125.617	1877.565	2901.057	1687.636
1364.497	7.070	3123.430	1876.251	2900.270	1687.318
1365.517	7.082	3121.533	1874.898	2899.504	1686.954
1366.537	7.063	3120.742	1874.402	2897.039	1684.876
1367.557	7.054	3118.102	1873.081	2891.971	1683.309
1368.577	7.040	3114.474	1870.399	2889.985	1680.224
1369.597	7.019	3111.888	1868.246	2889.792	1680.396
1370.617	6.979	3111.467	1867.200	2889.579	1679.491
1371.637	6.987	3113.038	1868.117	2888.626	1678.354
1372.657	7.030	3114.094	1869.416	2874.231	1673.395
1373.677	7.095	3112.763	1869.343	2850.689	1659.282
1374.697	7.108	3110.084	1867.634	2837.896	1649.062
1375.717	7.085	3107.710	1866.218	2833.742	1648.543
1376.737	7.090	3105.480	1864.676	2829.809	1646.733
1377.757	7.072	3103.096	1862.714	2826.579	1644.619
1378.777	7.064	3102.502	1861.781	2824.586	1643.373
1379.797	7.089	3102.884	1862.657	2822.005	1642.867
1380.817	7.080	3101.126	1861.880	2817.353	1639.980
1381.837	7.053	3099.889	1860.514	2813.265	1636.580
1382.857	7.059	3099.144	1860.114	2812.685	1635.699
1383.877	7.060	3097.709	1859.162	2811.964	1636.092
1384.897	7.095	3095.849	1858.631	2808.273	1635.549
1385.917	7.111	3093.180	1856.213	2804.928	1632.218
1386.937	7.119	3091.815	1854.735	2804.374	1630.618
1387.957	7.233	3092.065	1856.074	2804.932	1631.773
1388.977	7.323	3088.838	1856.446	2803.627	1631.383
1389.997	7.235	3075.450	1849.381	2801.260	1629.718
1391.017	7.189	3061.616	1841.463	2799.145	1628.876
1392.037	7.224	3053.630	1837.578	2797.143	1627.704
1393.057	7.180	3048.319	1832.426	2793.443	1625.683
1394.077	7.235	3044.754	1830.226	2788.035	1622.085
1395.097	7.282	3041.575	1829.519	2785.179	1619.372
1396.117	7.276	3039.324	1828.577	2783.755	1618.852
1397.136	7.283	3037.831	1827.291	2781.368	1617.192
1398.156	7.285	3035.040	1825.341	2779.007	1615.575
1399.176	7.266	3031.919	1823.567	2777.747	1614.683
1400.196	7.212	3029.951	1821.716	2777.213	1613.800
1401.216	7.201	3028.426	1820.401	2777.058	1614.221
1402.236	7.209	3026.789	1819.214	2775.879	1613.693
1403.256	7.215	3024.735	1818.073	2775.472	1612.946
1404.276	7.287	3021.382	1817.322	2777.072	1613.663
1405.296	7.283	3019.985	1814.867	2778.479	1616.397
1406.316	7.316	3019.153	1814.488	2778.559	1618.995
1407.336	7.819	3017.410	1814.534	2783.794	1631.978
1408.356	8.527	3017.720	1816.137	2794.725	1671.995
1409.376	9.255	3021.366	1831.568	2803.134	1711.911
1410.396	9.829	3022.159	1847.329	2806.762	1731.125
1411.416	9.727	3019.442	1846.703	2807.645	1739.988
1412.436	9.489	3015.104	1841.221	2806.795	1743.221
1413.456	9.356	3010.880	1834.767	2806.113	1743.911
1414.476	9.326	3007.777	1829.935	2805.960	1743.763
1415.496	9.393	3006.545	1829.965	2806.177	1743.476
1416.516	9.504	3005.617	1831.432	2805.901	1743.545
1417.536	9.548	3003.470	1830.713	2805.007	1742.316
1418.556	9.526	3001.421	1829.612	2803.666	1741.068
1419.576	9.534	2999.570	1828.389	2801.127	1739.165
1420.596	9.585	2998.217	1827.128	2799.092	1737.433
1421.616	9.661	2997.767	1827.492	2797.272	1735.542
1422.636	9.780	2997.046	1828.590	2796.810	1734.093
1423.656	9.803	2995.850	1828.870	2797.941	1734.643
1424.676	9.831	2993.952	1829.184	2797.581	1734.300
1425.696	9.803	2991.410	1826.998	2796.646	1733.668
1426.716	9.728	2988.746	1824.136	2796.530	1733.131
1427.736	9.640	2985.519	1821.567	2794.812	1732.542
1428.756	9.566	2981.589	1818.939	2793.285	1730.157
1429.776	9.413	2978.190	1814.921	2791.243	1728.512
1430.796	9.248	2975.380	1810.766	2787.237	1725.786
1431.816	9.143	2973.047	1807.740	2782.370	1720.957
1432.836	9.059	2971.437	1805.497	2778.624	1716.356
1433.856	9.017	2969.081	1802.867	2776.358	1712.277
1434.876	8.969	2965.451	1799.437	2773.975	1708.593
1435.896	8.918	2963.118	1796.978	2771.002	1704.356
1436.916	8.871	2962.652	1795.957	2768.356	1699.408
1437.936	8.858	2962.406	1796.760	2767.882	1698.011
1438.956	8.814	2960.825	1795.629	2769.723	1699.536
1439.976	8.692	2959.353	1792.793	2770.957	1700.330
1440.996	8.566	2957.284	1790.927	2769.852	1699.781
1442.016	8.400	2952.745	1787.056	2767.618	1696.899
1443.036	8.169	2948.777	1780.833	2765.540	1695.071
1444.056	7.994	2947.107	1777.058	2764.473	1695.102
1445.076	7.846	2945.156	1774.842	2763.676	1696.429
1446.096	7.647	2942.051	1771.242	2761.351	1696.712
1447.115	7.407	2939.305	1766.073	2759.275	1696.115
1448.135	7.209	2938.674	1762.866	2757.463	1695.915
1449.155	7.137	2937.909	1761.099	2755.571	1695.218
1450.175	7.053	2935.351	1757.473	2752.906	1693.870
1451.195	6.887	2934.290	1756.317	2750.757	1692.854
1452.215	6.687	2933.031	1755.482	2750.390	1693.100
1453.235	6.692	2930.517	1750.521	2750.768	1694.169
1454.255	6.933	2929.516	1745.436	2751.897	1695.488
1455.275	7.531	2932.113	1752.218	2751.232	1697.064
1456.295	8.279	2936.040	1765.256	2747.134	1694.874
1457.315	8.793	2938.510	1774.403	2741.944	1690.824
1458.335	9.119	2939.973	1780.942	2739.392	1688.203
1459.355	9.344	2940.008	1785.689	2738.504	1687.365
1460.375	9.397	2939.136	1786.222	2737.993	1686.986
1461.395	9.397	2938.072	1785.053	2737.805	1686.347
1462.415	9.418	2936.891	1784.392	2738.513	1686.797
1463.435	9.443	2935.601	1783.984	2738.788	1687.421
1464.455	9.461	2934.455	1783.649	2738.360	1687.111
1465.475	9.468	2933.365	1783.490	2736.214	1685.618
1466.495	9.454	2932.898	1782.824	2733.509	1683.272
1467.515	9.496	2932.824	1782.895	2730.935	1680.377
1468.535	9.458	2931.856	1782.158	2728.014	1677.906
1469.555	9.367	2930.985	1781.207	2725.341	1675.198
1470.575	9.297	2930.205	1779.848	2723.612	1673.589
1471.595	9.223	2928.085	1777.089	2722.777	1673.061
1472.615	9.136	2926.473	1774.978	2721.995	1673.308
1473.635	9.055	2925.272	1774.026	2722.025	1673.441
1474.655	8.923	2922.471	1771.269	2721.914	1674.239
1475.675	8.783	2919.346	1767.131	2721.988	1674.901
1476.695	8.716	2915.903	1763.758	2720.171	1675.148
1477.715	8.658	2913.885	1761.250	2717.457	1673.578
1478.735	8.724	2912.348	1760.747	2716.518	1672.990
1479.755	8.813	2910.997	1759.353	2717.516	1673.451
1480.775	8.941	2910.133	1759.273	2719.363	1674.359
1481.795	9.107	2908.580	1760.857	2720.514	1676.309
1482.815	9.224	2906.728	1761.666	2720.008	1676.978
1483.835	9.294	2905.021	1761.465	2717.793	1675.658
1484.855	9.320	2903.058	1760.523	2715.701	1674.107
1485.875	9.310	2900.733	1759.046	2713.761	1672.955
1486.895	9.307	2898.415	1757.921	2712.016	1671.057
1487.915	9.279	2896.181	1756.454	2710.861	1670.576
1488.935	9.208	2894.387	1754.507	2711.134	1670.772
1489.955	9.149	2892.999	1752.974	2711.371	1670.599
1490.975	9.119	2891.591	1751.869	2710.136	1670.649
1491.995	9.075	2889.431	1750.058	2707.090	1668.782
1493.015	8.968	2886.054	1747.428	2704.923	1666.773
1494.035	8.791	2881.733	1742.896	2703.289	1665.893
1495.055	8.614	2878.247	1738.172	2700.166	1663.755
1496.075	8.497	2875.367	1734.696	2698.700	1660.870
1497.095	8.404	2873.432	1732.097	2698.509	1661.249
1498.114	8.415	2870.851	1729.475	2697.151	1661.765
1499.134	8.469	2868.752	1727.666	2694.429	1659.488
1500.154	8.546	2868.539	1728.228	2692.638	1657.388
1501.174	8.593	2867.954	1729.297	2691.977	1656.614
1502.194	8.612	2866.789	1729.320	2692.354	1656.994
1503.214	8.569	2866.437	1727.927	2693.874	1658.146
1504.234	8.614	2866.778	1728.592	2695.548	1660.339
1505.254	8.634	2867.712	1729.541	2694.153	1659.314
1506.274	8.579	2867.484	1729.641	2691.388	1657.296
1507.294	8.208	2865.335	1728.120	2690.469	1655.970
1508.314	7.700	2861.258	1723.979	2688.677	1655.461
1509.334	7.106	2856.708	1711.030	2686.144	1653.618
1510.354	6.621	2853.677	1699.083	2684.330	1651.524
1511.374	6.478	2852.747	1695.960	2683.627	1650.647
1512.394	6.472	2852.642	1695.614	2682.235	1650.021
1513.414	6.446	2852.148	1695.147	2682.176	1649.538
1514.434	6.393	2851.415	1694.438	2681.893	1649.807
1515.454	6.440	2850.016	1693.899	2679.799	1649.174
1516.474	6.602	2847.514	1692.072	2678.248	1647.609
1517.494	7.173	2845.323	1690.236	2678.245	1647.426
1518.514	7.970	2848.564	1697.171	2678.497	1648.112
1519.534	8.708	2854.310	1716.667	2675.836	1646.904
1520.554	9.055	2854.884	1728.595	2673.956	1645.735
1521.574	8.872	2852.335	1724.709	2674.378	1645.221
1522.594	8.661	2850.529	1718.926	2673.401	1645.259
1523.614	8.606	2848.768	1716.970	2672.738	1644.005
1524.634	8.619	2846.325	1715.907	2672.132	1643.750
1525.654	8.627	2844.689	1714.414	2669.872	1643.097
1526.674	8.641	2843.230	1712.732	2669.191	1641.733
1527.694	8.633	2841.791	1712.223	2670.279	1642.611
1528.714	8.538	2839.487	1711.278	2670.037	1643.497
1529.734	8.392	2836.835	1708.609	2668.493	1642.131
1530.754	8.232	2833.907	1703.972	2666.443	1640.598
1531.774	8.122	2831.002	1699.864	2663.932	1639.021
1532.794	8.119	2828.717	1697.398	2661.258	1636.291
1533.814	8.176	2827.838	1696.749	2659.906	1634.491
1534.834	8.267	2826.933	1697.488	2660.496	1634.749
1535.854	8.354	2826.320	1697.755	2661.464	1635.948
1536.874	8.551	2825.529	1698.682	2660.863	1636.298
1537.894	8.803	2823.939	1699.644	2658.430	1635.065
1538.914	9.043	2822.262	1701.002	2655.236	1632.309
1539.934	9.242	2820.530	1703.261	2653.195	1630.398
1540.954	9.339	2819.384	1704.055	2651.353	1630.110
1541.974	9.416	2818.490	1703.897	2648.583	1627.947
1542.994	9.518	2818.230	1704.360	2646.422	1625.653
1544.014	9.633	2817.610	1705.512	2645.074	1624.277
1545.034	9.704	2816.073	1706.159	2644.111	1623.943
1546.054	9.703	2814.569	1705.970	2643.779	1623.592
1547.074	9.665	2812.104	1704.568	2642.896	1623.200
1548.093	9.545	2808.862	1700.885	2641.373	1622.024
1549.113	9.413	2807.014	1697.880	2641.067	1621.059
1550.133	9.338	2805.922	1696.526	2640.063	1620.462
1551.153	9.257	2804.352	1694.056	2636.591	1618.595
1552.173	9.196	2803.227	1692.050	2633.813	1615.891
1553.193	9.168	2802.072	1690.855	2633.192	1615.166
1554.213	9.178	2800.812	1689.365	2632.359	1615.290
1555.233	9.259	2799.558	1689.268	2630.224	1613.451
1556.253	9.337	2798.109	1689.917	2628.932	1611.096
1557.273	9.404	2796.302	1689.718	2626.900	1610.229
1558.293	9.360	2795.748	1688.913	2622.931	1607.801
1559.313	9.361	2794.618	1689.485	2618.500	1604.239
1560.333	9.313	2792.368	1687.432	2616.106	1601.988
1561.353	9.241	2790.569	1684.500	2616.359	1601.401
1562.373	9.132	2789.949	1683.452	2617.959	1602.059
1563.393	9.043	2788.784	1682.992	2618.717	1603.377
1564.413	8.948	2786.626	1679.763	2618.385	1603.794
1565.433	8.857	2785.335	1676.283	2617.578	1603.167
1566.453	8.842	2785.193	1675.447	2616.849	1603.126
1567.473	8.907	2786.331	1677.087	2616.015	1603.258
1568.493	8.985	2788.046	1678.912	2614.674	1602.731
1569.513	9.053	2788.875	1679.819	2613.584	1601.946
1570.533	9.098	2788.139	1680.182	2612.836	1601.976
1571.553	9.096	2786.730	1679.720	2611.390	1601.069
1572.573	9.044	2786.217	1678.872	2609.146	1599.498
1573.593	8.967	2785.279	1677.489	2605.998	1598.022
1574.613	8.845	2784.119	1675.638	2602.166	1595.349
1575.633	8.760	2782.501	1674.196	2600.169	1593.294
1576.653	8.646	2780.177	1670.937	2600.406	1592.986
1577.673	8.587	2777.718	1667.310	2598.216	1592.840
1578.693	8.616	2774.993	1665.459	2594.882	1590.014
1579.713	8.665	2773.428	1664.911	2593.960	1588.388
1580.733	8.724	2773.998	1666.242	2595.285	1589.805
1581.753	8.790	2774.338	1667.705	2595.217	1590.712
1582.773	8.856	2772.978	1667.585	2593.176	1589.064
1583.793	8.878	2771.428	1666.321	2591.113	1587.559
1584.813	8.877	2770.865	1666.588	2589.354	1585.811
1585.833	8.829	2769.686	1666.485	2588.783	1585.524
1586.853	8.706	2766.903	1663.577	2587.978	1585.799
1587.873	8.574	2764.180	1659.676	2587.721	1585.231
1588.893	8.549	2762.105	1656.470	2587.561	1584.958
1589.913	8.645	2760.912	1655.944	2585.002	1584.303
1590.933	8.761	2760.450	1657.657	2584.196	1582.141
1591.953	8.885	2759.211	1659.191	2584.340	1582.334
1592.973	8.915	2756.905	1658.218	2584.371	1582.484
1593.993	8.932	2753.797	1656.272	2583.540	1582.286
1595.013	8.943	2751.671	1654.548	2582.504	1581.457
1596.033	8.975	2749.155	1653.463	2581.213	1580.608
1597.053	8.974	2746.382	1652.134	2578.633	1578.644
1598.072	8.936	2744.933	1650.322	2577.333	1577.024
1599.092	8.952	2744.664	1650.089	2577.302	1577.471
1600.112	9.008	2743.456	1650.105	2576.978	1577.859
1601.132	9.078	2741.776	1649.656	2575.901	1576.688
1602.152	9.113	2739.905	1648.189	2574.067	1575.172
1603.172	9.190	2737.877	1647.541	2573.166	1573.920
1604.192	9.256	2736.061	1647.258	2573.260	1573.998
1605.212	9.248	2734.145	1646.743	2573.310	1574.164
1606.232	9.205	2732.661	1645.494	2573.029	1574.021
1607.252	9.148	2731.802	1644.159	2570.583	1572.802
1608.272	9.062	2731.580	1643.587	2566.502	1569.717
1609.292	8.990	2730.690	1642.174	2564.471	1566.629
1610.312	8.894	2729.280	1639.561	2564.389	1566.784
1611.332	8.786	2728.354	1637.734	2563.824	1567.075
1612.352	8.755	2726.979	1636.496	2562.750	1566.331
1613.372	8.708	2725.698	1635.229	2562.666	1566.085
1614.392	8.671	2724.450	1633.771	2563.363	1566.987
1615.412	8.680	2723.295	1633.059	2562.827	1567.266
1616.432	8.650	2722.101	1632.029	2559.681	1565.378
1617.452	8.602	2721.124	1631.451	2557.132	1562.499
1618.472	8.526	2720.318	1630.411	2556.391	1561.635
1619.492	8.435	2719.273	1628.116	2556.201	1562.212
1620.512	8.342	2718.567	1626.282	2556.439	1562.965
1621.532	8.244	2717.958	1625.720	2555.163	1562.445
1622.552	7.927	2716.403	1624.355	2554.498	1560.912
1623.572	7.246	2713.389	1621.009	2556.056	1561.458
1624.592	6.356	2706.979	1609.004	2557.693	1563.437
1625.612	5.500	2700.519	1589.663	2557.267	1563.269
1626.632	5.146	2698.021	1579.975	2556.434	1562.512
1627.652	5.076	2697.984	1578.333	2557.366	1562.988
1628.672	5.075	2697.114	1577.811	2556.524	1563.699
1629.692	5.084	2696.818	1577.615	2553.878	1562.099
1630.712	5.080	2696.881	1578.240	2552.006	1560.023
1631.732	5.028	2697.450	1577.906	2550.542	1559.045
1632.752	4.949	2697.512	1576.910	2547.471	1557.218
1633.772	5.074	2696.482	1577.259	2544.987	1555.136
1634.792	5.507	2694.261	1575.493	2543.386	1554.111
1635.812	6.165	2694.203	1577.026	2543.481	1553.553
1636.832	7.035	2697.470	1589.709	2544.603	1553.811
1637.852	7.802	2699.603	1603.158	2544.422	1554.692
1638.872	8.161	2699.618	1609.442	2541.548	1552.805
1639.892	8.320	2699.130	1611.642	2539.626	1550.642
1640.912	8.433	2697.978	1611.639	2539.308	1549.955
1641.932	8.551	2696.590	1611.774	2538.301	1549.293
1642.952	8.602	2696.170	1612.185	2536.269	1548.000
1643.972	8.627	2695.499	1612.818	2533.749	1545.816
1644.992	8.626	2694.484	1612.581	2533.045	1544.331
1646.012	8.590	2692.347	1610.947	2534.449	1544.610
1647.032	8.570	2689.334	1608.160	2533.088	1544.106
1648.052	8.613	2687.095	1606.126	2530.402	1541.148
1649.071	8.745	2685.349	1605.927	2528.952	1539.370
1650.091	8.856	2684.108	1605.803	2528.054	1538.358
1651.111	8.957	2683.919	1606.636	2526.085	1536.914
1652.131	9.043	2683.519	1607.808	2525.017	1535.846
1653.151	9.114	2682.135	1608.387	2525.392	1536.401
1654.171	9.083	2681.686	1608.010	2524.883	1537.046
1655.191	9.038	2680.948	1607.657	2523.390	1536.495
1656.211	9.015	2680.319	1607.214	2521.413	1535.247
1657.231	8.995	2679.309	1606.009	2520.786	1534.934
1658.251	8.976	2677.391	1604.532	2520.687	1535.755
1659.271	8.917	2675.611	1603.059	2520.901	1535.516
1660.291	8.879	2673.468	1601.909	2519.759	1535.109
1661.311	8.807	2670.149	1598.771	2519.210	1534.764
1662.331	8.734	2667.082	1595.522	2519.014	1534.912
1663.351	8.731	2664.923	1593.607	2517.011	1533.887
1664.371	8.743	2663.995	1593.029	2514.939	1531.730
1665.391	8.720	2663.126	1592.726	2514.098	1530.180
1666.411	8.650	2661.769	1592.074	2514.351	1530.185
1667.431	8.486	2659.850	1589.629	2514.785	1530.743
1668.451	8.331	2658.191	1586.706	2515.190	1529.964
1669.471	8.216	2655.939	1583.354	2514.324	1529.198
1670.491	8.121	2653.580	1580.509	2511.714	1526.907
1671.511	8.076	2652.423	1578.961	2508.641	1524.203
1672.531	8.063	2652.649	1577.867	2505.765	1521.335
1673.551	8.153	2652.453	1578.125	2504.186	1518.630
1674.571	8.295	2652.013	1578.978	2503.482	1517.497
1675.591	8.358	2651.418	1579.658	2503.624	1517.077
1676.611	8.409	2650.690	1580.382	2502.939	1516.195
1677.631	8.453	2649.977	1580.446	2499.846	1513.128
1678.651	8.420	2649.236	1579.827	2497.155	1508.849
1679.671	8.322	2647.459	1578.518	2497.802	1508.730
1680.691	8.180	2645.333	1575.841	2499.394	1510.653
1681.711	8.072	2644.649	1573.219	2498.857	1511.791
1682.731	8.023	2644.047	1571.909	2497.376	1511.316
1683.751	7.997	2642.106	1571.533	2495.626	1510.405
1684.771	7.846	2639.646	1569.459	2494.155	1509.664
1685.791	7.696	2637.097	1566.371	2494.104	1511.221
1686.811	7.610	2635.770	1562.818	2494.450	1513.819
1687.831	7.667	2634.699	1560.736	2493.198	1515.747
1688.851	7.835	2635.198	1561.556	2492.659	1516.164
1689.871	8.078	2635.838	1564.509	2492.405	1517.157
1690.891	8.306	2635.997	1567.851	2491.011	1517.363
1691.911	8.450	2635.853	1569.626	2489.302	1516.947
1692.931	8.579	2635.415	1570.585	2488.585	1517.008
1693.951	8.713	2635.694	1572.445	2488.713	1517.119
1694.971	8.814	2635.608	1573.470	2489.319	1518.090
1695.991	8.870	2634.994	1573.212	2489.385	1518.869
1697.011	8.885	2633.966	1572.787	2489.349	1518.537
1698.031	8.871	2632.506	1572.432	2490.767	1519.859
1699.050	8.801	2631.324	1571.233	2490.774	1521.273
1700.070	8.735	2630.266	1570.235	2487.507	1519.743
1701.090	8.661	2628.022	1568.621	2484.340	1516.969
1702.110	8.562	2626.016	1565.621	2482.010	1515.487
1703.130	8.542	2625.572	1564.038	2480.300	1514.080
1704.150	8.641	2624.446	1563.720	2479.648	1513.863
1705.170	8.787	2622.859	1563.687	2479.184	1514.053
1706.190	8.916	2621.264	1563.489	2479.049	1513.903
1707.210	9.088	2619.555	1564.591	2478.972	1514.287
1708.230	9.217	2617.850	1565.009	2478.929	1514.242
1709.250	9.312	2616.420	1565.284	2478.139	1513.094
1710.270	9.434	2614.917	1565.319	2474.711	1508.241
1711.290	9.530	2613.508	1565.431	2467.800	1496.803
1712.310	9.545	2612.446	1565.708	2456.905	1475.508
1713.330	9.518	2611.794	1565.525	2443.803	1437.394
1714.350	9.517	2609.903	1564.083	2433.726	1401.751
1715.370	9.538	2606.519	1562.267	2428.961	1389.162
1716.390	9.530	2604.130	1560.243	2427.554	1385.523
1717.410	9.511	2603.911	1559.110	2426.987	1384.490
1718.430	9.573	2602.699	1559.387	2425.004	1383.866
1719.450	9.615	2601.115	1559.214	2421.572	1381.938
1720.470	9.592	2599.466	1558.039	2418.342	1379.081
1721.490	9.504	2597.832	1556.143	2417.136	1377.648
1722.510	9.448	2596.876	1555.026	2415.548	1377.202
1723.530	9.415	2595.725	1553.937	2414.413	1375.697
1724.550	9.379	2594.205	1551.814	2415.118	1376.361
1725.570	9.358	2594.000	1551.025	2414.979	1376.805
1726.590	9.352	2593.987	1551.045	2413.634	1376.071
1727.610	9.309	2594.272	1551.153	2411.809	1375.357
1728.630	9.255	2594.327	1550.464	2409.930	1373.776
1729.650	9.227	2593.484	1549.632	2408.434	1372.493
1730.670	9.175	2592.453	1548.363	2406.106	1371.826
1731.690	9.182	2592.014	1547.789	2403.009	1369.766
1732.710	9.214	2592.073	1547.515	2401.493	1368.037
1733.730	9.244	2592.465	1547.366	2401.356	1367.632
1734.750	8.966	2592.430	1548.477	2401.978	1368.110
1735.770	8.385	2590.809	1548.501	2403.345	1369.029
1736.790	7.559	2585.836	1536.311	2404.998	1370.557
1737.810	6.841	2580.992	1519.841	2405.810	1371.428
1738.830	6.606	2578.872	1513.376	2405.712	1371.606
1739.850	6.597	2577.221	1512.649	2404.352	1371.307
1740.870	6.571	2575.964	1511.796	2401.662	1369.527
1741.890	6.502	2576.542	1511.049	2399.812	1367.157
1742.910	6.562	2576.993	1511.627	2399.506	1367.639
1743.930	6.600	2575.676	1511.595	2398.956	1367.427
1744.950	6.618	2572.723	1510.271	2397.793	1366.436
1745.970	6.545	2570.588	1508.177	2396.725	1365.665
1746.990	6.499	2568.677	1506.816	2396.016	1365.396
1748.010	6.397	2566.791	1503.941	2394.671	1364.734
1749.030	6.341	2566.404	1503.073	2393.114	1364.008
1750.049	6.353	2565.231	1502.492	2392.120	1362.387
1751.069	6.335	2562.248	1500.835	2388.966	1359.632
1752.089	6.364	2559.398	1499.088	2383.891	1356.837
1753.109	6.370	2557.327	1496.993	2379.035	1353.829
1754.129	6.420	2555.610	1496.685	2374.650	1351.217
1755.149	6.478	2553.222	1496.287	2370.786	1349.340
1756.169	6.434	2551.342	1494.451	2367.937	1347.934
1757.189	6.442	2549.645	1493.858	2365.921	1346.464
1758.209	6.460	2547.255	1492.293	2363.583	1344.982
1759.229	6.473	2546.047	1490.640	2362.247	1344.457
1760.249	6.539	2544.679	1490.815	2361.495	1343.544
1761.269	6.518	2542.973	1490.320	2360.180	1343.499
1762.289	6.502	2541.490	1489.157	2358.146	1343.279
1763.309	6.507	2541.097	1488.132	2355.353	1341.783
1764.329	6.595	2540.595	1488.227	2352.471	1339.276
1765.349	7.159	2537.838	1488.124	2350.059	1337.030
1766.369	7.801	2536.937	1487.763	2347.612	1336.638
1767.389	8.578	2539.815	1500.777	2347.298	1336.173
1768.409	9.173	2542.160	1514.841	2350.339	1347.478
1769.429	9.213	2542.179	1516.404	2352.513	1361.042
1770.449	9.196	2539.630	1514.093	2353.026	1363.151
1771.469	9.184	2536.348	1511.119	2351.909	1361.529
1772.489	9.184	2534.906	1510.161	2349.676	1359.727
1773.509	9.243	2535.064	1510.228	2346.563	1358.076
1774.529	9.327	2535.839	1511.145	2344.189	1356.999
1775.549	9.409	2534.798	1511.843	2343.735	1356.490
1776.569	9.443	2532.881	1511.136	2343.753	1357.124
1777.589	9.419	2531.609	1509.643	2342.919	1357.732
1778.609	9.448	2530.917	1508.950	2341.474	1356.500
1779.629	9.483	2529.518	1508.751	2340.271	1355.606
1780.649	9.565	2527.451	1508.161	2339.254	1355.576
1781.669	9.644	2526.311	1507.982	2338.017	1355.165
1782.689	9.657	2526.216	1508.185	2336.767	1355.434
1783.709	9.711	2524.595	1507.930	2335.005	1354.682
1784.729	9.695	2522.322	1506.248	2333.332	1353.537
1785.749	9.635	2521.132	1504.685	2332.890	1353.363
1786.769	9.614	2521.440	1504.503	2332.687	1352.977
1787.789	9.626	2522.210	1505.041	2331.833	1352.152
1788.809	9.613	2522.353	1504.941	2330.699	1351.325
1789.829	9.614	2522.276	1504.817	2329.271	1350.567
1790.849	9.568	2522.135	1504.770	2327.967	1349.121
1791.869	9.538	2521.730	1504.932	2326.752	1348.679
1792.889	9.457	2520.682	1503.651	2324.804	1348.147
1793.909	9.286	2519.949	1501.187	2323.131	1346.002
1794.929	9.169	2518.728	1499.521	2321.733	1343.440
1795.949	9.053	2517.859	1497.583	2319.986	1341.639
1796.969	8.935	2517.038	1495.898	2317.441	1339.343
1797.989	8.766	2516.215	1493.746	2315.949	1336.744
1799.009	8.644	2515.334	1492.088	2315.777	1335.308
1800.028	8.588	2513.469	1489.879	2315.819	1334.188
1801.048	8.618	2510.986	1487.769	2315.212	1333.230
1802.068	8.679	2509.455	1486.705	2313.563	1332.339
1803.088	8.783	2509.639	1488.107	2311.461	1331.452
1804.108	8.832	2510.352	1489.218	2310.131	1331.165
1805.128	8.879	2509.402	1489.732	2309.449	1331.141
1806.148	8.888	2507.534	1489.172	2308.816	1331.335
1807.168	8.869	2505.050	1487.440	2307.939	1331.630
1808.188	8.805	2502.713	1485.305	2306.937	1330.859
1809.208	8.728	2501.265	1484.211	2305.562	1329.787
1810.228	8.636	2499.341	1482.441	2304.105	1328.673
1811.248	8.459	2496.593	1478.796	2302.134	1327.089
1812.268	8.246	2494.337	1475.837	2300.188	1324.333
1813.288	8.034	2492.947	1473.644	2298.614	1321.870
1814.308	7.809	2490.407	1469.939	2297.181	1319.568
1815.328	7.651	2487.280	1464.997	2296.371	1317.081
1816.348	7.628	2484.882	1461.404	2294.847	1313.896
1817.368	7.718	2483.649	1460.599	2293.237	1310.908
1818.388	7.891	2483.384	1462.596	2291.673	1310.369
1819.408	8.022	2482.595	1464.283	2289.964	1311.287
1820.428	8.071	2481.195	1463.936	2287.839	1311.039
1821.448	8.149	2479.624	1463.141	2285.743	1310.503
1822.468	8.232	2478.404	1462.800	2284.558	1309.632
1823.488	8.340	2476.572	1462.804	2283.563	1309.775
1824.508	8.432	2474.838	1462.552	2282.460	1309.935
1825.528	8.434	2475.065	1463.001	2281.146	1310.168
1826.548	8.434	2475.489	1464.173	2279.870	1309.917
1827.568	8.365	2474.571	1463.459	2279.547	1310.140
1828.588	8.258	2473.507	1461.596	2278.202	1309.541
1829.608	8.157	2472.614	1459.396	2275.830	1307.226
1830.628	8.106	2471.375	1457.423	2274.173	1304.217
1831.648	8.093	2470.148	1456.560	2273.887	1303.003
1832.668	8.158	2469.458	1456.416	2273.581	1302.442
1833.688	8.300	2469.471	1456.455	2272.057	1302.250
1834.708	8.467	2469.009	1457.746	2271.387	1301.548
1835.728	8.560	2468.495	1459.072	2270.444	1302.127
1836.748	8.676	2468.484	1460.824	2269.608	1303.787
1837.768	8.730	2467.791	1461.403	2269.555	1304.886
1838.788	8.698	2466.750	1460.563	2269.070	1305.500
1839.808	8.664	2466.513	1459.778	2267.608	1304.888
1840.828	8.704	2466.035	1459.494	2266.041	1303.358
1841.848	8.754	2466.353	1458.999	2265.484	1302.581
1842.868	8.835	2467.619	1460.602	2264.533	1301.870
1843.888	8.938	2467.711	1462.883	2263.476	1301.721
1844.908	8.979	2466.701	1461.983	2262.796	1302.550
1845.928	8.988	2465.534	1460.771	2262.155	1302.792
1846.948	9.041	2463.930	1460.857	2261.771	1302.078
1847.968	9.062	2463.417	1460.627	2260.720	1302.205
1848.988	9.071	2464.430	1461.345	2259.291	1302.289
1850.008	9.048	2465.299	1462.174	2258.835	1301.649
1851.027	8.997	2464.949	1461.979	2258.695	1301.627
1852.047	8.889	2463.578	1460.509	2258.605	1301.453
1853.067	8.757	2461.259	1457.656	2257.804	1300.709
1854.087	8.606	2458.726	1454.339	2255.897	1298.400
1855.107	8.524	2456.438	1451.979	2254.448	1295.721
1856.127	8.511	2454.877	1450.050	2254.098	1294.185
1857.147	8.548	2453.124	1448.736	2253.772	1293.689
1858.167	8.578	2451.243	1448.051	2252.493	1292.722
1859.187	8.597	2449.756	1447.630	2250.988	1292.509
1860.207	8.583	2447.810	1446.848	2249.993	1292.130
1861.227	8.500	2446.288	1445.374	2248.866	1291.851
1862.247	8.374	2445.665	1443.067	2247.286	1289.860
1863.267	8.286	2443.837	1441.362	2246.345	1288.320
1864.287	8.074	2441.625	1439.982	2245.528	1287.199
1865.307	7.530	2439.277	1436.479	2244.547	1286.594
1866.327	6.762	2435.301	1430.181	2243.471	1284.487
1867.347	5.972	2430.401	1417.985	2241.492	1280.296
1868.367	5.277	2426.235	1404.238	2238.367	1270.469
1869.387	5.066	2423.568	1399.321	2234.264	1257.661
1870.407	5.049	2421.729	1397.144	2231.550	1252.235
1871.427	5.062	2420.540	1395.564	2230.290	1250.780
1872.447	5.123	2419.724	1395.560	2229.313	1250.016
1873.467	5.143	2418.588	1395.171	2228.175	1249.231
1874.487	5.158	2417.590	1395.072	2226.172	1248.708
1875.507	5.166	2416.878	1394.902	2224.580	1248.231
1876.527	5.167	2415.943	1394.046	2223.494	1247.342
1877.547	5.098	2415.653	1392.870	2221.542	1246.594
1878.567	5.157	2415.179	1393.789	2220.059	1244.459
1879.587	5.181	2413.600	1393.018	2219.331	1244.723
1880.607	5.137	2411.053	1390.610	2218.156	1244.091
1881.627	5.125	2409.282	1389.725	2217.182	1242.792
1882.647	5.123	2407.564	1388.287	2216.816	1242.030
1883.667	5.125	2405.908	1386.922	2216.304	1242.253
1884.687	5.149	2404.823	1386.901	2215.255	1241.515
1885.707	5.164	2403.992	1386.479	2214.098	1241.489
1886.727	5.238	2403.203	1385.759	2212.652	1240.976
1887.747	5.763	2402.361	1385.417	2210.915	1239.731
1888.767	6.641	2403.897	1388.046	2209.910	1238.923
1889.787	7.675	2408.371	1401.614	2210.958	1240.292
1890.807	8.628	2411.422	1418.799	2215.020	1252.633
1891.827	8.980	2412.020	1424.320	2218.799	1268.706
1892.847	9.057	2413.081	1425.813	2219.624	1274.424
1893.867	9.058	2413.722	1427.817	2219.738	1275.626
1894.887	9.030	2413.072	1427.219	2219.296	1276.266
1895.907	8.941	2412.196	1424.787	2217.154	1275.335
1896.927	8.925	2411.444	1424.292	2214.492	1271.976
1897.947	8.889	2411.014	1423.637	2212.456	1269.952
1898.967	8.831	2410.879	1422.998	2210.608	1268.928
1899.987	8.788	2409.870	1421.800	2209.269	1267.713
1901.006	8.800	2408.837	1420.820	2208.324	1266.446
1902.026	8.867	2408.906	1421.085	2207.637	1265.808
1903.046	8.992	2408.607	1422.885	2207.836	1266.508
1904.066	9.023	2407.994	1422.712	2207.486	1267.877
1905.086	9.025	2407.356	1421.892	2205.201	1267.311
1906.106	9.064	2406.489	1421.747	2202.849	1265.605
1907.126	9.085	2405.478	1421.594	2200.943	1264.398
1908.146	9.074	2404.820	1420.694	2199.124	1262.773
1909.166	9.115	2404.996	1420.950	2197.768	1262.162
1910.186	9.122	2404.537	1420.918	2196.003	1261.150
1911.206	9.072	2402.718	1419.585	2194.685	1259.432
1912.226	9.058	2400.922	1418.215	2194.407	1259.547
1913.246	9.064	2399.495	1417.025	2194.231	1258.919
1914.266	9.151	2398.817	1416.292	2193.774	1258.969
1915.286	9.256	2398.913	1417.294	2193.037	1258.539
1916.306	9.350	2398.388	1418.773	2192.645	1258.700
1917.326	9.404	2397.260	1418.973	2192.024	1259.845
1918.346	9.362	2395.111	1417.153	2191.066	1260.471
1919.366	9.289	2393.053	1415.564	2189.812	1259.017
1920.386	9.246	2391.137	1414.110	2189.124	1258.296
1921.406	9.196	2389.462	1412.000	2188.165	1257.766
1922.426	9.120	2388.728	1410.220	2186.681	1256.000
1923.446	9.140	2388.142	1410.312	2185.811	1254.654
1924.466	9.160	2387.379	1410.079	2185.563	1254.438
1925.486	9.140	2386.474	1409.309	2185.445	1254.309
1926.506	9.152	2384.277	1408.431	2185.446	1253.813
1927.526	9.093	2382.288	1406.926	2185.483	1254.134
1928.546	8.998	2380.145	1405.201	2185.220	1254.145
1929.566	8.846	2377.351	1402.476	2183.790	1253.123
1930.586	8.637	2374.705	1399.065	2182.244	1251.020
1931.606	8.432	2372.150	1395.529	2180.887	1248.860
1932.626	8.262	2369.499	1391.848	2178.365	1246.281
1933.646	8.074	2367.325	1388.472	2176.129	1242.539
1934.666	7.977	2366.315	1387.192	2175.724	1240.863
1935.686	7.933	2364.727	1385.224	2174.775	1240.230
1936.706	7.920	2362.327	1382.303	2172.465	1237.781
1937.726	7.971	2361.351	1381.012	2170.785	1234.390
1938.746	8.127	2361.785	1383.055	2170.152	1234.255
1939.766	8.191	2361.792	1384.807	2170.277	1235.618
1940.786	8.186	2360.688	1384.223	2170.118	1236.708
1941.806	8.170	2359.924	1382.524	2169.123	1236.392
1942.826	8.210	2359.849	1382.624	2168.061	1234.773
1943.846	8.199	2359.842	1383.866	2167.620	1234.504
1944.866	7.789	2358.813	1384.173	2167.064	1235.603
1945.886	7.102	2355.595	1380.236	2165.876	1235.390
1946.906	6.350	2350.238	1366.654	2163.786	1232.200
1947.926	5.737	2346.916	1353.727	2159.642	1221.292
1948.946	5.625	2345.374	1351.019	2155.630	1209.485
1949.966	5.671	2344.401	1350.957	2153.603	1206.386
1950.986	5.680	2344.498	1350.526	2152.757	1206.095
1952.005	5.695	2344.557	1350.821	2151.901	1205.366
1953.025	5.702	2343.709	1350.387	2151.483	1205.180
1954.045	5.637	2342.603	1349.103	2150.610	1204.680
1955.065	5.641	2341.721	1348.632	2149.703	1204.091
1956.085	5.640	2341.559	1348.108	2149.206	1203.675
1957.105	5.707	2340.972	1348.207	2149.250	1203.260
1958.125	6.148	2340.097	1348.132	2148.831	1203.741
1959.145	6.758	2341.067	1348.305	2147.422	1203.167
1960.165	7.622	2344.009	1359.029	2146.984	1202.788
1961.185	8.396	2346.092	1372.270	2149.508	1211.905
1962.205	8.977	2347.542	1377.094	2152.295	1224.213
1963.225	9.951	2349.957	1379.404	2152.626	1228.563
1964.245	11.205	2355.592	1390.909	2152.485	1229.628
1965.265	12.509	2361.466	1414.018	2154.727	1237.220
1966.285	13.259	2362.693	1428.263	2159.172	1256.349
1967.305	13.287	2361.071	1428.240	2161.475	1269.914
1968.325	13.237	2359.642	1425.928	2161.335	1270.659
1969.345	13.281	2358.739	1424.883	2160.199	1269.499
1970.365	13.352	2358.014	1425.188	2158.501	1268.011
1971.385	13.431	2357.129	1425.411	2157.275	1267.703
1972.405	13.608	2356.419	1425.514	2156.374	1267.700
1973.425	13.946	2356.300	1425.629	2155.590	1267.802
1974.445	14.163	2357.616	1430.356	2155.114	1267.605
1975.465	14.250	2357.510	1437.286	2156.715	1271.881
1976.485	14.012	2354.090	1432.490	2157.708	1278.328
1977.505	13.613	2351.734	1424.120	2155.409	1274.893
1978.525	13.594	2351.276	1423.598	2153.391	1268.298
1979.545	13.629	2350.382	1423.302	2151.902	1267.148
1980.565	13.645	2349.606	1422.886	2150.707	1266.324
1981.585	13.648	2348.907	1422.472	2149.079	1265.518
1982.605	13.669	2347.271	1421.408	2147.160	1263.876
1983.625	13.669	2346.107	1420.283	2145.347	1262.696
1984.645	13.708	2344.829	1419.961	2142.775	1261.111
1985.665	13.746	2342.287	1418.719	2141.175	1259.604
1986.685	14.378	2340.951	1416.726	2141.478	1259.486
1987.705	16.444	2342.081	1417.116	2141.776	1260.077
1988.725	19.224	2351.580	1439.731	2143.349	1260.343
1989.745	22.119	2365.914	1491.436	2153.933	1280.606
1990.765	23.688	2372.807	1524.462	2168.700	1328.426
1991.785	23.536	2372.483	1527.484	2174.928	1358.904
1992.805	23.364	2367.172	1524.561	2174.433	1360.990
1993.825	23.565	2347.414	1510.959	2169.532	1359.073
1994.845	23.180	2321.479	1493.836	2149.310	1346.051
1995.865	21.561	2305.074	1485.006	2121.716	1327.800
1996.885	22.075	2287.058	1460.977	2104.815	1318.312
1997.905	23.553	2280.554	1417.282	2088.320	1297.096
1998.925	27.528	2298.024	1467.356	2081.478	1257.819
1999.945	32.326	2312.137	1554.796	2096.653	1300.194
2000.965	33.227	2313.200	1570.885	2110.361	1378.117
2001.984	33.273	2311.299	1570.291	2111.218	1393.108
2003.004	33.293	2309.102	1569.238	2107.404	1391.292
2004.024	33.367	2306.052	1567.895	2103.124	1388.653
2005.044	33.348	2302.373	1565.378	2098.790	1385.527
2006.064	32.912	2297.472	1562.586	2094.060	1382.921
2007.084	29.534	2291.896	1558.364	2089.431	1379.143
2008.104	24.914	2272.636	1537.887	2077.234	1372.723
2009.124	19.656	2242.133	1448.786	2050.386	1308.618
2010.144	15.450	2224.186	1367.272	2025.915	1223.668
2011.164	14.946	2219.374	1355.787	2016.152	1196.743
2012.184	14.918	2217.069	1354.151	2014.299	1194.628
2013.204	14.930	2214.360	1352.724	2013.342	1194.080
2014.224	14.910	2211.079	1350.420	2012.078	1193.675
2015.244	14.892	2208.385	1348.292	2009.931	1192.940
2016.264	14.823	2207.166	1347.339	2007.982	1191.537
2017.284	14.950	2204.571	1346.614	2005.971	1190.493
2018.304	16.543	2200.079	1342.291	2002.462	1187.618
2019.324	18.696	2204.443	1345.874	2005.420	1190.661
2020.344	21.430	2216.918	1389.578	2015.469	1228.137
2021.364	23.740	2222.947	1430.046	2019.579	1262.700
2022.384	23.447	2236.001	1433.268	2013.106	1261.092
2023.404	23.189	2263.279	1446.652	2004.240	1251.133
2024.424	23.850	2281.063	1467.543	2001.544	1249.427
2025.444	24.297	2284.415	1475.782	2001.896	1254.676
2026.464	24.657	2282.345	1476.516	2000.033	1256.088
2027.484	25.878	2256.220	1471.097	1983.897	1252.883
2028.504	26.254	2214.962	1444.613	1964.646	1239.611
2029.524	25.865	2198.088	1428.214	1964.402	1239.099
2030.544	26.359	2196.856	1436.143	1968.996	1250.580
2031.564	26.524	2193.638	1436.923	1966.359	1251.185
2032.584	26.571	2189.326	1434.476	1961.903	1248.235
2033.604	26.582	2185.197	1431.742	1958.305	1246.158
2034.624	26.598	2181.894	1429.339	1954.370	1243.565
2035.644	26.574	2179.381	1427.305	1950.962	1241.027
2036.664	26.555	2177.191	1426.054	1948.310	1239.430
2037.684	26.553	2174.651	1424.698	1946.124	1237.849
2038.704	26.553	2171.446	1422.674	1943.633	1236.836
2039.724	26.525	2168.546	1420.071	1940.528	1234.738
2040.744	26.534	2165.953	1418.551	1937.507	1232.708
2041.764	26.555	2162.685	1416.781	1934.461	1230.536
2042.784	26.521	2159.891	1414.159	1931.741	1229.167
2043.804	26.497	2158.735	1412.731	1929.157	1226.721
2044.824	26.552	2157.658	1412.464	1926.893	1225.312
2045.844	26.585	2156.201	1411.314	1924.888	1224.380
2046.864	26.631	2153.984	1409.967	1922.543	1222.903
2047.884	26.600	2152.281	1408.339	1920.116	1221.187
2048.904	26.557	2151.731	1407.734	1918.036	1219.604
2049.924	26.556	2152.061	1408.375	1916.628	1218.710
2050.944	26.596	2151.412	1408.694	1915.136	1218.152
2051.964	26.589	2149.878	1407.448	1912.838	1216.113
2052.983	26.573	2148.435	1406.161	1910.191	1214.279
2054.003	26.547	2147.228	1404.753	1908.849	1212.893
2055.023	26.568	2146.224	1404.298	1907.512	1212.510
2056.043	26.584	2144.451	1403.481	1906.228	1211.406
2057.063	26.583	2142.839	1401.986	1905.468	1210.414
2058.083	26.634	2141.131	1401.570	1905.049	1210.567
2059.103	26.587	2139.216	1399.664	1903.691	1210.132
2060.123	26.593	2137.359	1398.306	1901.854	1208.677
2061.143	26.564	2136.134	1397.171	1900.394	1207.732
2062.163	26.567	2135.061	1396.591	1898.288	1206.562
2063.183	26.577	2133.833	1395.365	1895.861	1204.894
2064.203	26.660	2131.775	1394.586	1893.624	1202.789
2065.223	26.694	2129.139	1392.769	1892.087	1201.918
2066.243	26.639	2126.923	1390.745	1891.564	1201.461
2067.263	26.599	2125.153	1389.523	1890.908	1201.130
2068.283	26.578	2124.430	1388.691	1889.449	1199.914
2069.303	26.605	2123.632	1388.489	1888.309	1199.321
2070.323	26.577	2122.806	1387.937	1887.570	1198.999
2071.343	26.516	2122.507	1387.240	1886.585	1198.431
2072.363	26.556	2121.322	1386.926	1885.597	1197.787
2073.383	26.571	2120.071	1385.991	1883.789	1196.827
2074.403	26.573	2119.489	1385.375	1882.144	1195.247
2075.423	26.600	2118.603	1385.014	1880.979	1194.610
2076.443	26.638	2116.903	1384.276	1880.195	1194.016
2077.463	26.615	2115.158	1382.627	1879.170	1193.080
2078.483	26.642	2113.746	1381.460	1877.158	1192.480
2079.503	26.414	2112.004	1380.441	1874.484	1190.779
2080.523	26.577	2107.178	1378.773	1870.063	1188.499
2081.543	29.125	2076.558	1369.602	1850.151	1183.523
2082.563	45.442	1647.504	1287.073	1513.084	1132.897
2083.583	63.009	785.034	738.251	767.743	658.977
2084.603	44.217	174.198	137.552	183.595	121.464
2085.623	-7.802	12.490	5.215	12.927	5.328
2086.643	496.445	0.182	-0.976	0.327	-1.297
2087.663	178.179	-1.207	-2.497	-1.112	-2.081
2088.683	155.840	-1.328	-2.411	-1.233	-2.503
2089.703	164.550	-1.304	-2.472	-1.212	-2.242
2090.723	156.259	-1.336	-2.426	-1.279	-2.014
2091.743	161.773	-1.405	-2.633	-1.338	-2.343
2092.763	166.881	-1.264	-2.435	-1.275	-2.108
2093.783	155.792	-1.258	-2.282	-1.361	-2.312
2094.803	187.336	-1.248	-2.669	-1.278	-2.049
2095.823	140.776	-1.304	-2.167	-1.235	-2.343
2096.843	155.763	-1.367	-2.477	-1.349	-2.246
2097.863	162.651	-1.343	-2.528	-1.310	-2.178
2098.883	165.212	-1.317	-2.514	-1.221	-2.337
2099.903	149.490	-1.401	-2.450	-1.342	-2.308
2100.923	146.408	-1.418	-2.436	-1.365	-2.278
2101.943	145.826	-1.419	-2.429	-1.349	-2.304
2102.962	148.269	-1.365	-2.370	-1.415	-2.317
2103.982	156.200	-1.335	-2.425	-1.382	-2.112
2105.002	160.000	-1.311	-2.434	-1.195	-2.215
2106.022	148.583	-1.411	-2.456	-1.122	-2.109
2107.042	139.657	-1.463	-2.416	-1.138	-2.086
2108.062	136.304	-1.381	-2.234	-1.295	-2.314
2109.082	165.932	-1.229	-2.357	-1.452	-2.338
2110.102	167.420	-1.251	-2.417	-1.357	-2.052
2111.122	167.759	-1.275	-2.468	-1.323	-2.207
2112.142	156.328	-1.258	-2.288	-1.241	-2.070
2113.162	149.549	-1.343	-2.351	-1.230	-2.112
2114.182	154.753	-1.299	-2.343	-1.208	-2.104
2115.202	158.607	-1.341	-2.471	-1.272	-2.116
2116.222	150.856	-1.343	-2.368	-1.207	-2.216
2117.242	161.466	-1.228	-2.299	-1.121	-2.083
2118.262	153.107	-1.259	-2.250	-1.168	-2.096
2119.282	163.221	-1.234	-2.333	-1.264	-2.275
2120.302	164.887	-1.170	-2.231	-1.246	-2.045
2121.322	152.928	-1.263	-2.255	-1.168	-2.217
2122.342	164.178	-1.184	-2.249	-1.178	-2.111
2123.362	179.404	-1.173	-2.411	-1.163	-2.251
2124.382	174.714	-1.123	-2.255	-1.067	-1.953
2125.402	189.735	-1.067	-2.310	-0.978	-2.073
2126.422	165.200	-1.187	-2.266	-0.891	-2.063
2127.442	180.209	-1.100	-2.270	-0.954	-2.070
2128.462	167.864	-1.223	-2.369	-1.163	-2.177
2129.482	151.491	-1.238	-2.191	-1.108	-2.278
2130.502	190.752	-1.051	-2.285	-1.058	-2.079
2131.522	221.006	-0.929	-2.316	-1.142	-2.067
2132.542	195.788	-1.030	-2.294	-1.125	-1.999
2133.562	173.176	-1.115	-2.220	-1.051	-1.997
2134.582	177.356	-1.100	-2.238	-1.080	-2.065
2135.602	162.781	-1.171	-2.207	-1.005	-2.149
2136.622	168.656	-1.110	-2.160	-0.945	-1.806
2137.642	182.510	-1.126	-2.351	-0.893	-2.067
2138.662	150.808	-1.247	-2.198	-1.071	-1.864
2139.682	152.523	-1.225	-2.181	-1.121	-2.052
2140.702	150.516	-1.254	-2.205	-1.084	-1.963
2141.722	146.133	-1.205	-2.067	-1.109	-1.914
2142.742	169.484	-1.148	-2.240	-1.039	-2.028
2143.762	195.842	-1.055	-2.347	-0.958	-2.025
2144.782	183.945	-1.016	-2.135	-1.065	-1.870
2145.802	221.399	-0.959	-2.392	-1.036	-2.175
2146.822	189.668	-0.968	-2.090	-0.998	-1.767
2147.842	175.772	-1.089	-2.197	-1.035	-1.909
2148.862	182.219	-1.072	-2.233	-1.014	-1.861
2149.882	165.664	-1.056	-2.019	-0.830	-1.995
2150.902	197.969	-1.021	-2.294	-0.882	-1.908
2151.922	206.178	-0.945	-2.202	-0.984	-2.035
2152.942	190.886	-0.997	-2.164	-1.074	-1.940
2153.961	183.679	-0.953	-1.998	-0.945	-1.955
2154.981	175.479	-1.083	-2.179	-0.935	-1.958
2156.001	175.663	-1.045	-2.104	-0.979	-2.006
2157.021	195.180	-0.978	-2.169	-1.008	-2.026
2158.041	193.301	-0.990	-2.176	-0.968	-1.936
2159.061	171.653	-1.006	-1.984	-0.888	-1.705
2160.081	180.784	-0.999	-2.065	-0.860	-2.010
2161.101	179.006	-1.035	-2.120	-0.924	-1.782
2162.121	171.557	-0.999	-1.969	-0.989	-1.873
2163.141	178.846	-1.022	-2.090	-0.852	-2.035
2164.161	166.871	-1.025	-1.970	-0.844	-1.905
2165.181	185.262	-1.084	-2.290	-0.892	-1.833
2166.201	183.639	-1.062	-2.225	-0.845	-2.043
2167.221	185.768	-1.000	-2.116	-0.813	-1.921
2168.241	194.403	-0.934	-2.062	-0.811	-1.900
2169.261	202.210	-0.955	-2.185	-0.927	-1.951
2170.281	198.680	-0.979	-2.204	-0.929	-1.750
2171.301	218.941	-0.943	-2.322	-0.780	-2.042
2172.321	206.800	-0.875	-2.045	-0.774	-2.001
2173.341	228.833	-0.837	-2.149	-0.954	-1.880
2174.361	230.347	-0.897	-2.316	-0.928	-2.085
2175.381	199.966	-0.976	-2.210	-0.926	-1.932
2176.401	202.002	-0.863	-1.971	-0.884	-2.012
2177.421	228.126	-0.860	-2.199	-0.913	-1.946
2178.441	198.227	-0.919	-2.063	-0.933	-2.005
2179.461	197.600	-0.895	-2.003	-0.974	-1.950
2180.481	202.701	-0.932	-2.136	-0.938	-1.892
2181.501	206.188	-0.939	-2.186	-0.955	-1.908
2182.521	193.551	-0.897	-1.969	-0.989	-1.780
2183.541	228.712	-0.786	-2.015	-0.810	-1.828
2184.561	228.896	-0.763	-1.957	-0.800	-1.990
2185.581	252.660	-0.774	-2.179	-0.973	-1.942
2186.601	228.566	-0.775	-1.985	-0.946	-1.946
2187.621	217.827	-0.830	-2.032	-0.870	-1.740
2188.641	234.554	-0.826	-2.164	-0.799	-1.987
2189.661	197.195	-0.850	-1.895	-0.844	-1.867
2190.681	277.074	-0.752	-2.303	-0.882	-1.898
2191.701	238.563	-0.737	-1.965	-0.842	-1.752
2192.721	262.012	-0.735	-2.153	-0.870	-1.928
2193.741	246.072	-0.835	-2.052	-0.872	-1.970
2194.761	208.143	-1.007	-1.972	-0.787	-1.751
2195.781	173.823	-1.090	-1.944	-0.748	-1.842
2196.801	165.242	-1.042	-2.117	-0.800	-1.904
2197.821	127.203	-0.970	-2.032	-0.834	-1.773
2198.841	249.919	-0.905	-2.140	-0.804	-1.986
2199.861	242.491	-0.822	-1.916	-0.779	-1.944
