DTS Sentinel unit serial number:	SN214307Multiplexer serial number:	SNM14295Hardware model number:	SEN2LRSoftware version number:	Sentinel DTS v5.1data status	okinstallation	All Channels Greendifferential loss correction	combinedforward channel	channel 7reverse channel	channel 7 reversedate	2018/01/01time	04:06:43forward acquisition time	600.15reverse acquisition time	600.00gamma	516.3409k internal	0.2621k external	0.2621temperature offset calibration	1.0000default loss term (dB/km)	0.2634temperature slope calibration	NaNmultiplexer offset coefficient	1.0000multiplexer slope coefficient	1.0000fibre end	2030.54T internal ref (°C)	26.03T ext. ref 1 (°C)	12.78T ext. ref 2 (°C)	32.57length (m)	temperature (°C)	forward Stokes	forward anti-Stokes	reverse Stokes	reverse anti-Stokes-293.990	9.914	0.201	-0.030	-0.121	0.090
-292.970	523.330	0.121	-0.190	0.012	-0.071
-291.950	112.343	-0.118	-0.047	0.028	-0.059
-290.930	448.198	-0.086	0.117	0.057	0.067
-289.910	-200.000	0.020	-0.143	0.191	0.224
-288.890	800.000	-0.006	-0.028	-0.136	-0.040
-287.870	264.401	0.111	-0.093	-0.193	-0.035
-286.850	800.000	-0.037	-0.142	0.194	-0.021
-285.830	246.878	0.076	0.060	-0.122	-0.065
-284.810	674.125	-0.079	0.153	0.146	-0.061
-283.790	-200.000	-0.013	-0.166	0.037	0.066
-282.770	86.754	0.139	-0.045	0.097	-0.129
-281.750	111.249	0.076	-0.030	0.004	0.030
-280.730	-152.091	0.115	-0.000	-0.141	-0.006
-279.710	-200.000	-0.003	0.061	-0.270	0.099
-278.690	175.693	-0.104	0.060	0.150	0.020
-277.670	537.179	-0.060	-0.096	0.047	0.058
-276.650	-12.799	0.084	-0.009	-0.229	-0.098
-275.630	55.087	-0.036	0.009	-0.119	0.145
-274.610	242.752	0.149	0.116	0.123	-0.095
-273.590	-200.000	0.001	-0.114	0.205	-0.086
-272.570	262.369	-0.096	0.080	-0.010	-0.183
-271.550	248.033	-0.128	0.102	-0.252	-0.161
-270.530	800.000	-0.016	-0.047	-0.066	0.034
-269.510	265.056	-0.123	0.103	0.123	0.020
-268.491	-200.000	0.007	0.089	0.120	-0.157
-267.471	6.673	0.150	0.021	0.087	-0.171
-266.451	509.020	-0.079	-0.121	-0.119	0.094
-265.431	-200.000	-0.014	-0.161	0.002	-0.072
-264.411	242.740	-0.044	0.034	0.086	-0.082
-263.391	-66.211	-0.061	-0.002	-0.017	-0.066
-262.371	189.408	0.075	-0.046	0.011	0.078
-261.351	800.000	0.021	0.080	-0.053	-0.010
-260.331	421.928	0.045	-0.059	-0.077	0.059
-259.311	578.603	-0.085	-0.145	0.107	-0.118
-258.291	427.530	-0.064	-0.085	-0.060	0.029
-257.271	800.000	-0.039	0.088	-0.054	0.024
-256.251	-200.000	0.010	-0.102	-0.173	-0.026
-255.231	-200.000	0.001	0.051	0.020	0.109
-254.211	155.880	0.077	-0.040	-0.125	-0.055
-253.191	42.957	0.151	0.033	-0.183	0.014
-252.171	-95.217	0.161	0.003	-0.149	-0.070
-251.151	800.000	-0.046	0.108	-0.132	-0.109
-250.131	-1.896	-0.085	-0.011	0.016	0.096
-249.111	97.623	-0.174	0.061	0.140	-0.070
-248.091	124.681	-0.226	0.097	0.053	-0.092
-247.071	245.835	0.047	-0.037	0.095	-0.003
-246.051	129.819	0.210	0.093	0.111	0.089
-245.031	-200.000	0.004	-0.049	0.110	0.127
-244.011	572.259	-0.049	-0.083	0.203	0.102
-242.991	800.000	0.026	-0.075	0.068	-0.098
-241.971	597.211	0.055	0.097	-0.004	-0.098
-240.951	269.260	0.180	-0.154	0.029	-0.047
-239.931	-200.000	-0.008	0.105	0.045	0.112
-238.911	134.411	0.054	0.025	0.033	0.056
-237.891	-34.701	-0.104	0.008	-0.053	0.000
-236.871	448.828	0.057	-0.079	-0.021	0.100
-235.851	207.173	0.150	-0.100	-0.058	0.052
-234.831	-60.291	0.066	0.003	-0.082	-0.042
-233.811	68.013	-0.004	-0.001	0.185	0.093
-232.791	-200.000	-0.019	0.218	0.052	0.206
-231.771	230.139	-0.212	-0.156	-0.099	0.110
-230.751	800.000	-0.035	-0.086	-0.158	0.251
-229.731	800.000	0.047	0.130	0.038	-0.090
-228.711	183.089	0.123	0.073	-0.030	0.165
-227.691	225.965	-0.031	-0.022	0.081	0.058
-226.671	234.523	0.158	0.118	0.247	0.216
-225.651	800.000	0.035	0.146	0.163	0.046
-224.631	266.874	0.408	0.346	0.460	0.248
-223.611	130.872	18.343	8.174	18.581	7.715
-222.591	389.126	69.231	83.583	70.195	81.312
-221.571	492.908	55.710	83.079	56.808	80.656
-220.551	355.102	10.472	11.619	10.459	11.476
-219.531	289.375	5.614	5.140	5.755	4.824
-218.511	330.088	0.775	0.804	0.588	0.770
-217.492	10.146	0.473	0.071	0.814	-0.036
-216.472	101.776	0.139	-0.051	0.027	-0.131
-215.452	366.902	0.142	0.162	0.236	0.067
-214.432	364.050	0.091	0.103	-0.094	-0.177
-213.412	350.230	-0.070	0.077	-0.108	-0.085
-212.392	-200.000	0.014	-0.124	-0.034	0.136
-211.372	377.890	-0.117	0.137	-0.123	0.040
-210.352	800.000	0.040	-0.126	0.088	-0.023
-209.332	38.902	0.127	0.027	0.177	-0.052
-208.312	238.058	0.080	0.061	0.083	0.014
-207.292	336.053	0.155	0.163	0.203	0.115
-206.272	139.561	0.076	0.036	0.161	0.184
-205.252	126.928	0.331	0.144	0.097	0.049
-204.232	-200.000	0.002	0.056	0.011	0.146
-203.212	800.000	0.048	0.179	0.114	-0.189
-202.192	115.106	0.223	0.089	0.178	0.058
-201.172	800.000	0.028	0.066	-0.048	-0.069
-200.152	57.857	0.248	0.063	0.174	0.173
-199.132	198.688	0.135	0.087	0.163	0.295
-198.112	313.136	0.121	0.119	0.004	0.224
-197.092	39.561	0.419	0.089	0.141	0.114
-196.072	334.597	0.226	0.237	0.128	0.544
-195.052	144.011	0.321	0.155	0.115	0.207
-194.032	130.356	0.319	0.142	0.230	0.137
-193.012	219.957	0.207	0.146	0.465	0.084
-191.992	195.226	0.296	0.187	0.389	0.324
-190.972	165.032	0.451	0.245	0.362	0.248
-189.952	278.878	0.349	0.308	0.653	0.356
-188.932	436.946	0.319	0.428	0.338	0.247
-187.912	336.703	0.502	0.530	0.554	0.506
-186.892	118.166	0.673	0.276	0.581	0.363
-185.872	234.572	0.759	0.570	0.802	0.539
-184.852	198.071	0.861	0.552	0.793	0.749
-183.832	239.484	1.129	0.865	0.852	0.731
-182.812	211.629	1.211	0.826	1.372	0.880
-181.792	223.969	1.423	1.024	1.561	1.010
-180.772	201.488	1.752	1.142	1.615	1.154
-179.752	226.374	2.207	1.603	2.026	1.659
-178.732	252.322	2.317	1.864	2.445	1.634
-177.712	230.109	3.037	2.240	3.123	2.394
-176.692	234.926	3.969	2.985	3.933	2.783
-175.672	241.328	4.883	3.767	4.847	3.819
-174.652	245.049	6.267	4.905	6.235	4.805
-173.632	240.495	8.203	6.307	8.047	6.575
-172.612	248.220	10.947	8.672	10.813	8.787
-171.592	256.251	14.930	12.188	14.942	12.144
-170.572	264.624	22.058	18.561	22.105	18.469
-169.552	283.995	36.398	31.561	36.604	31.456
-168.532	291.070	75.623	64.021	75.641	63.902
-167.513	116.473	588.601	228.352	588.855	228.645
-166.493	228.318	6282.784	4844.515	6286.357	4849.314
-165.473	249.547	11735.027	10299.682	11736.240	10301.486
-164.453	253.920	11451.860	9566.674	11452.934	9567.670
-163.433	245.066	11083.931	7981.981	11084.422	7984.093
-162.413	204.158	11216.865	8127.780	11217.730	8128.358
-161.393	184.271	11164.902	8120.946	11165.827	8122.508
-160.373	181.940	11114.228	8076.027	11115.594	8077.679
-159.353	181.480	11070.437	8038.773	11072.298	8039.944
-158.333	185.994	11033.462	8006.852	11034.216	8008.808
-157.313	207.178	11006.888	7984.735	11008.334	7986.051
-156.293	208.310	10985.265	7967.599	10986.212	7969.451
-155.273	193.929	10965.537	7951.686	10965.504	7954.120
-154.253	221.508	10942.529	7933.960	10943.557	7936.526
-153.233	232.242	10924.462	7920.230	10925.230	7922.137
-152.213	195.255	10909.856	7908.712	10910.833	7910.705
-151.193	192.866	10893.916	7896.512	10894.925	7898.457
-150.173	210.062	10882.373	7886.920	10882.756	7887.968
-149.153	231.566	10874.710	7881.083	10874.539	7882.743
-148.133	234.673	10863.733	7875.685	10864.991	7877.632
-147.113	195.328	10849.815	7864.594	10850.406	7865.564
-146.093	197.497	10833.624	7846.489	10834.816	7848.094
-145.073	200.759	10817.794	7832.586	10819.129	7834.975
-144.053	209.376	10803.368	7823.910	10803.804	7825.240
-143.033	234.526	10790.302	7812.905	10791.222	7814.110
-142.013	227.419	10777.313	7803.463	10778.296	7804.715
-140.993	195.180	10765.239	7792.126	10766.781	7793.587
-139.973	221.486	10756.898	7784.348	10757.075	7785.393
-138.953	219.391	10747.114	7778.292	10747.736	7780.083
-137.933	205.683	10738.988	7772.729	10739.706	7773.545
-136.913	224.769	10730.630	7768.230	10731.397	7770.105
-135.893	232.491	10721.082	7761.869	10722.017	7763.647
-134.873	224.663	10710.366	7752.961	10711.198	7754.788
-133.853	203.490	10699.917	7745.138	10701.593	7747.446
-132.833	180.957	10688.222	7735.632	10688.994	7737.649
-131.813	162.141	10676.163	7725.659	10677.059	7727.768
-130.793	175.152	10662.724	7714.197	10664.136	7716.409
-129.773	186.082	10650.411	7704.202	10651.289	7705.454
-128.753	182.640	10640.469	7696.266	10642.677	7698.810
-127.733	202.564	10637.691	7694.279	10640.341	7696.515
-126.713	223.123	10635.400	7693.720	10636.363	7695.573
-125.693	199.669	10626.584	7687.905	10627.724	7689.206
-124.673	181.984	10616.801	7680.871	10618.610	7681.683
-123.653	181.909	10611.524	7677.369	10612.054	7678.939
-122.633	218.534	10602.139	7671.031	10603.203	7671.876
-121.613	208.395	10586.441	7655.998	10585.953	7656.994
-120.593	162.294	10572.936	7641.967	10573.808	7643.638
-119.573	141.511	10566.197	7637.302	10567.001	7638.154
-118.553	161.879	10560.206	7633.308	10561.485	7634.484
-117.533	184.589	10554.225	7629.455	10555.068	7631.373
-116.514	193.984	10542.442	7622.392	10543.876	7623.418
-115.494	184.171	10529.747	7611.966	10532.215	7613.103
-114.474	169.709	10524.122	7605.087	10524.800	7606.982
-113.454	178.964	10516.312	7600.831	10516.695	7602.676
-112.434	190.793	10499.806	7586.943	10500.670	7588.921
-111.414	185.138	10486.494	7574.492	10488.404	7575.439
-110.394	170.398	10480.848	7570.388	10482.527	7571.445
-109.374	164.340	10475.784	7567.355	10477.396	7569.505
-108.354	186.206	10468.448	7561.476	10468.685	7563.128
-107.334	195.342	10458.895	7552.666	10459.710	7554.921
-106.314	174.692	10451.710	7548.070	10452.132	7548.782
-105.294	186.813	10446.388	7544.312	10447.124	7545.933
-104.274	188.302	10436.578	7537.519	10436.152	7538.776
-103.254	194.553	10427.453	7528.171	10428.735	7529.529
-102.234	166.160	10423.032	7524.147	10424.229	7526.187
-101.214	165.559	10415.725	7519.354	10416.591	7521.671
-100.194	184.199	10411.421	7516.856	10412.749	7518.101
-99.174	165.494	10408.863	7515.961	10409.262	7517.823
-98.154	153.757	10400.058	7510.251	10401.466	7511.894
-97.134	155.442	10388.461	7498.877	10389.637	7500.703
-96.114	154.277	10383.765	7494.999	10384.807	7496.686
-95.094	176.114	10383.832	7496.256	10384.572	7497.959
-94.074	171.871	10381.411	7494.754	10381.366	7495.701
-93.054	169.624	10374.897	7491.778	10376.220	7493.003
-92.034	152.413	10370.021	7487.211	10371.424	7489.041
-91.014	155.036	10364.992	7483.903	10366.728	7484.638
-89.994	150.778	10362.257	7479.131	10363.387	7480.556
-88.974	155.259	10355.158	7475.140	10357.519	7476.146
-87.954	151.004	10351.830	7471.702	10353.151	7473.329
-86.934	152.024	10347.791	7470.261	10348.401	7470.869
-85.914	147.653	10340.934	7464.478	10341.421	7466.137
-84.894	130.954	10335.906	7460.429	10336.769	7461.864
-83.874	133.571	10335.742	7459.928	10336.282	7461.545
-82.854	144.602	10330.562	7458.267	10331.462	7459.599
-81.834	147.157	10324.310	7453.773	10325.559	7454.544
-80.814	147.222	10318.524	7449.843	10319.751	7451.313
-79.794	139.809	10312.098	7445.574	10313.260	7446.657
-78.774	147.568	10306.937	7438.353	10306.874	7440.068
-77.754	151.427	10303.317	7435.604	10304.289	7436.967
-76.734	142.748	10301.572	7435.711	10302.911	7436.663
-75.714	148.219	10296.758	7433.539	10297.501	7435.327
-74.694	146.834	10291.860	7430.817	10292.966	7431.610
-73.674	154.533	10289.405	7428.306	10289.959	7429.969
-72.654	158.210	10286.697	7428.224	10287.158	7429.277
-71.634	146.355	10286.028	7428.060	10287.037	7429.393
-70.614	142.261	10284.368	7427.787	10284.796	7428.993
-69.594	133.869	10280.821	7425.473	10281.610	7426.489
-68.574	131.333	10276.580	7421.618	10277.359	7423.035
-67.554	142.894	10268.395	7416.337	10269.913	7417.736
-66.535	141.706	10259.260	7408.577	10259.772	7409.528
-65.515	157.987	10249.377	7399.238	10249.885	7400.691
-64.495	176.434	10244.770	7395.390	10245.530	7396.300
-63.475	144.506	10243.943	7396.199	10244.806	7397.745
-62.455	152.183	10238.480	7393.549	10239.427	7394.000
-61.435	154.466	10228.768	7385.976	10229.682	7387.370
-60.415	151.496	10070.138	7298.731	10071.689	7300.330
-59.395	148.524	9802.349	7089.211	9804.209	7091.237
-58.375	181.936	9652.008	6894.145	9653.677	6896.087
-57.355	800.000	9610.142	6825.899	9611.774	6828.064
-56.335	-18.139	9599.978	6823.298	9601.095	6825.258
-55.315	25.806	9584.805	6811.786	9586.515	6813.560
-54.295	51.117	9500.079	6774.437	9503.528	6776.015
-53.275	43.181	9022.809	6571.943	9026.421	6569.582
-52.255	30.255	8322.241	6096.661	8202.880	5966.812
-51.235	25.543	7996.115	5762.499	7726.979	5481.195
-50.215	25.525	7925.990	5718.789	7627.837	5407.033
-49.195	25.827	7858.703	5690.536	7558.865	5370.772
-48.175	25.881	7810.754	5659.518	7512.380	5335.133
-47.155	25.893	7774.008	5632.893	7472.301	5305.373
-46.135	25.926	7740.509	5611.366	7436.119	5278.936
-45.115	25.936	7709.887	5588.665	7404.354	5255.439
-44.095	25.939	7681.147	5568.176	7376.412	5234.227
-43.075	25.932	7655.882	5548.908	7353.868	5216.219
-42.055	25.911	7634.676	5534.107	7337.473	5204.945
-41.035	25.909	7619.331	5522.866	7322.758	5196.849
-40.015	25.941	7600.332	5511.366	7305.430	5185.473
-38.995	25.992	7581.635	5497.167	7288.747	5173.070
-37.975	26.017	7568.662	5487.676	7276.859	5164.295
-36.955	26.002	7559.109	5481.791	7264.097	5156.962
-35.935	25.965	7545.689	5472.680	7247.185	5146.204
-34.915	25.962	7529.517	5461.123	7223.978	5127.969
-33.895	25.964	7512.156	5448.081	7203.546	5110.283
-32.875	25.949	7493.965	5433.562	7190.661	5099.301
-31.855	25.937	7481.515	5421.984	7177.699	5090.545
-30.835	25.960	7473.207	5416.532	7164.954	5081.534
-29.815	25.987	7464.136	5411.704	7153.970	5073.019
-28.795	25.991	7455.770	5405.741	7142.707	5065.905
-27.775	26.009	7446.610	5399.143	7129.217	5055.494
-26.755	26.037	7436.065	5392.233	7117.958	5045.753
-25.735	26.002	7425.406	5383.568	7108.990	5039.537
-24.715	26.015	7417.209	5377.715	7097.270	5031.960
-23.695	26.024	7410.606	5373.426	7082.789	5021.908
-22.675	26.019	7405.884	5369.961	7069.963	5011.601
-21.655	26.069	7400.285	5369.100	7061.366	5003.947
-20.635	26.089	7390.465	5361.845	7056.381	5001.039
-19.615	26.089	7379.250	5352.488	7050.119	4997.867
-18.595	26.069	7372.294	5347.346	7040.254	4991.555
-17.575	26.106	7364.237	5342.140	7026.385	4980.667
-16.555	26.109	7353.213	5333.495	7012.001	4969.124
-15.536	26.075	7345.450	5326.476	7000.023	4959.137
-14.516	26.042	7339.579	5321.967	6989.245	4950.396
-13.496	26.045	7332.839	5317.753	6982.756	4944.319
-12.476	26.065	7325.113	5312.861	6975.550	4939.394
-11.456	26.083	7315.647	5305.638	6966.546	4932.132
-10.436	26.055	7304.674	5297.151	6958.549	4926.462
-9.416	26.041	7297.048	5292.450	6949.167	4919.044
-8.396	26.055	7288.103	5285.211	6942.342	4912.935
-7.376	26.036	7279.039	5277.527	6942.895	4914.211
-6.356	26.022	7275.291	5274.833	6943.080	4916.110
-5.336	26.057	7268.015	5271.319	6936.339	4912.991
-4.316	26.069	7257.486	5264.079	6927.474	4905.710
-3.296	26.012	7247.444	5255.573	6921.480	4900.662
-2.276	26.010	7235.796	5246.225	6919.066	4898.111
-1.256	25.891	7225.919	5239.068	6915.715	4897.086
-0.236	25.309	7215.479	5230.003	6906.734	4889.653
0.784	25.375	7147.486	5187.585	6842.069	4851.239
1.804	25.593	6973.670	5066.867	6726.343	4755.247
2.824	24.772	6758.751	4885.096	6652.801	4670.065
3.844	24.028	6635.073	4766.131	6628.187	4636.977
4.864	23.551	6605.204	4734.366	6609.728	4618.605
5.884	23.249	6587.623	4712.926	6590.249	4596.474
6.904	23.102	6563.332	4677.547	6507.944	4541.464
7.924	22.959	6526.852	4646.001	6307.410	4401.428
8.944	21.573	6491.384	4637.698	6160.989	4291.694
9.964	19.368	6453.829	4611.436	6125.253	4260.704
10.984	16.732	6385.392	4449.780	6066.755	4115.746
12.004	14.678	6334.875	4298.623	6015.326	3975.746
13.024	14.583	6319.126	4281.881	5992.735	3953.285
14.044	14.672	6299.546	4274.700	5975.567	3944.674
15.064	14.677	6276.491	4258.888	5966.717	3939.730
16.084	14.673	6255.424	4243.555	5961.414	3936.677
17.104	14.667	6241.437	4233.285	5954.684	3933.037
18.124	14.744	6231.695	4228.206	5951.039	3932.438
19.144	15.806	6222.964	4224.224	5945.681	3929.245
20.164	19.612	6212.830	4218.696	5931.664	3922.011
21.184	24.508	6251.299	4323.389	5947.246	3955.447
22.204	29.704	6322.621	4606.377	6018.686	4203.382
23.224	32.863	6343.113	4786.770	6067.509	4439.042
24.244	33.019	6332.088	4786.807	6063.618	4464.398
25.264	33.034	6320.686	4779.271	6048.913	4455.497
26.284	33.039	6308.712	4771.424	6032.081	4440.820
27.304	33.007	6298.582	4764.058	6020.772	4431.465
28.324	32.286	6289.345	4756.219	6011.612	4425.666
29.344	28.486	6280.715	4748.264	6003.017	4417.978
30.364	24.781	6228.923	4662.181	5996.258	4412.060
31.384	21.799	6133.032	4366.041	5952.198	4334.544
32.404	20.694	6109.932	4236.961	5864.638	4062.283
33.424	22.924	6140.489	4364.370	5839.372	3940.574
34.443	23.590	6142.620	4398.119	5864.211	4054.585
35.463	23.175	6188.212	4409.605	5868.161	4087.393
36.483	23.280	6243.125	4455.219	5907.737	4098.222
37.503	23.565	6252.739	4484.384	5954.742	4137.305
38.523	22.310	6251.543	4488.008	5963.677	4163.716
39.543	19.913	6239.459	4474.585	5961.394	4165.748
40.563	16.966	6191.003	4350.162	5952.501	4154.249
41.583	14.345	6143.367	4188.114	5908.442	4041.510
42.603	13.502	6132.054	4136.054	5863.737	3892.805
43.623	13.433	6126.336	4129.945	5855.072	3844.565
44.643	13.431	6119.425	4125.316	5847.847	3838.162
45.663	13.405	6116.275	4121.697	5839.189	3830.573
46.683	13.421	6114.288	4119.716	5833.763	3824.849
47.703	13.432	6110.981	4118.006	5829.582	3822.077
48.723	13.441	6108.382	4115.722	5825.691	3820.067
49.743	13.427	6106.431	4113.525	5821.460	3815.947
50.763	13.462	6101.574	4110.761	5819.403	3813.159
51.783	13.700	6097.375	4106.159	5820.134	3813.811
52.803	13.900	6095.556	4106.092	5818.272	3813.614
53.823	13.992	6100.485	4128.660	5812.990	3810.126
54.843	13.851	6098.503	4133.417	5818.253	3830.668
55.863	13.387	6089.234	4106.220	5819.275	3838.057
56.883	13.182	6087.690	4094.612	5809.758	3813.434
57.903	13.152	6087.984	4094.507	5807.723	3801.212
58.923	13.137	6086.231	4092.988	5805.875	3799.653
59.943	13.107	6081.632	4086.877	5802.796	3797.023
60.963	13.055	6077.241	4081.331	5797.305	3790.434
61.983	13.022	6074.864	4081.170	5794.724	3785.413
63.003	12.459	6075.164	4082.352	5793.510	3786.043
64.023	11.447	6072.513	4078.826	5793.264	3786.846
65.043	10.114	6050.118	4023.741	5789.559	3783.462
66.063	8.888	6028.628	3953.371	5768.037	3734.016
67.083	8.264	6024.120	3929.965	5746.309	3667.510
68.103	7.606	6023.624	3925.885	5741.005	3643.595
69.123	6.795	6012.274	3904.735	5736.122	3637.747
70.143	6.015	5994.745	3858.961	5722.971	3617.042
71.163	5.547	5982.404	3825.993	5706.906	3574.214
72.183	5.475	5974.324	3817.983	5697.328	3543.907
73.203	5.445	5969.948	3813.868	5694.567	3541.178
74.223	5.405	5969.276	3811.957	5691.099	3538.949
75.243	5.486	5969.960	3814.632	5682.902	3532.141
76.263	5.466	5970.179	3814.159	5677.658	3530.229
77.283	5.471	5969.329	3814.344	5672.977	3526.200
78.303	5.475	5967.546	3812.760	5667.265	3522.837
79.323	5.458	5966.055	3810.586	5665.005	3521.082
80.343	5.573	5964.958	3811.363	5660.271	3516.953
81.363	6.053	5961.865	3808.698	5654.616	3514.662
82.383	6.730	5963.988	3814.865	5650.553	3510.030
83.403	7.494	5975.323	3851.690	5648.621	3512.670
84.422	8.062	5981.325	3884.722	5655.246	3542.181
85.442	8.106	5979.667	3889.407	5660.993	3572.386
86.462	8.017	5973.846	3882.956	5659.372	3576.598
87.482	8.001	5967.507	3875.071	5656.727	3573.914
88.502	7.995	5964.697	3872.084	5650.873	3567.029
89.522	8.003	5963.804	3874.041	5650.659	3566.155
90.542	7.923	5961.055	3871.474	5649.627	3568.316
91.562	7.828	5957.292	3865.278	5642.137	3561.646
92.582	7.798	5950.860	3856.533	5636.593	3553.996
93.602	7.869	5943.866	3851.555	5630.641	3546.700
94.622	7.986	5939.070	3851.754	5630.579	3545.006
95.642	8.096	5936.022	3852.306	5631.612	3549.075
96.662	8.251	5934.613	3852.779	5630.636	3552.171
97.682	8.412	5935.641	3856.354	5632.916	3555.586
98.702	8.635	5936.821	3863.340	5636.562	3561.503
99.722	8.828	5937.757	3869.845	5637.194	3567.905
100.742	8.934	5932.725	3870.687	5638.293	3572.745
101.762	8.958	5926.241	3867.650	5638.738	3577.546
102.782	8.960	5923.730	3866.525	5639.562	3579.917
103.802	8.963	5922.626	3865.457	5638.265	3579.247
104.822	8.976	5920.165	3863.952	5635.536	3577.766
105.842	8.979	5918.266	3863.464	5633.923	3575.768
106.862	9.031	5915.555	3861.404	5632.464	3574.965
107.882	9.082	5911.929	3858.810	5630.267	3573.804
108.902	9.121	5906.777	3856.783	5628.765	3571.871
109.922	9.166	5902.608	3855.498	5628.121	3573.494
110.942	9.228	5898.510	3853.560	5627.074	3575.145
111.962	9.190	5896.107	3852.120	5625.928	3575.554
112.982	9.117	5893.867	3851.220	5629.443	3577.854
114.002	9.029	5890.717	3845.905	5629.043	3579.396
115.022	8.912	5886.254	3838.762	5624.025	3573.161
116.042	8.868	5881.793	3833.395	5620.149	3565.584
117.062	8.908	5877.109	3830.040	5614.985	3560.066
118.082	8.912	5869.085	3824.616	5613.947	3559.067
119.102	8.879	5864.439	3819.306	5615.770	3561.085
120.122	8.925	5861.993	3818.619	5610.774	3558.500
121.142	8.940	5861.287	3818.222	5607.710	3555.678
122.162	8.913	5858.463	3816.718	5609.557	3557.573
123.182	8.862	5852.642	3811.889	5607.926	3557.978
124.202	8.833	5848.194	3807.543	5600.000	3552.308
125.222	8.798	5845.610	3804.922	5591.361	3544.569
126.242	8.728	5847.505	3805.866	5586.444	3539.657
127.262	8.684	5848.117	3805.091	5581.167	3535.551
128.282	8.643	5845.835	3800.406	5577.830	3530.947
129.302	8.622	5843.429	3797.001	5578.068	3528.183
130.322	8.659	5842.957	3797.434	5574.405	3526.066
131.342	8.724	5842.474	3799.041	5568.817	3522.280
132.362	8.776	5840.986	3799.028	5568.048	3521.834
133.382	8.822	5838.889	3797.106	5565.974	3523.972
134.402	8.864	5839.189	3798.609	5559.576	3518.584
135.421	8.919	5839.030	3802.551	5558.592	3517.886
136.441	8.894	5835.786	3801.024	5556.785	3522.578
137.461	8.520	5831.775	3794.533	5548.118	3515.618
138.481	7.703	5828.395	3789.228	5540.664	3505.669
139.501	6.686	5814.182	3762.077	5536.434	3501.249
140.521	5.680	5796.602	3709.839	5524.003	3478.965
141.541	5.096	5790.004	3676.648	5505.624	3428.984
142.561	5.054	5788.164	3671.259	5496.575	3394.701
143.581	5.019	5785.535	3668.805	5494.210	3389.263
144.601	5.013	5784.256	3668.734	5494.177	3389.432
145.621	4.948	5784.421	3666.215	5495.321	3390.314
146.641	4.965	5782.200	3664.585	5492.858	3387.371
147.661	4.977	5780.164	3664.166	5491.565	3385.275
148.681	4.974	5777.451	3661.600	5492.715	3386.952
149.701	4.995	5776.200	3660.702	5489.621	3385.366
150.721	5.005	5775.650	3661.537	5485.002	3382.001
151.741	5.034	5772.054	3659.885	5485.148	3382.527
152.761	5.017	5767.157	3655.381	5484.620	3383.410
153.781	5.045	5761.863	3652.373	5482.475	3380.335
154.801	4.993	5757.533	3648.596	5480.509	3379.846
155.821	4.915	5755.621	3646.689	5476.140	3376.965
156.841	4.860	5755.719	3645.022	5472.877	3373.378
157.861	4.909	5754.479	3643.547	5466.563	3368.701
158.881	4.935	5752.236	3641.393	5457.438	3360.142
159.901	5.151	5752.743	3643.425	5452.815	3355.943
160.921	5.708	5752.566	3645.435	5452.400	3356.204
161.941	6.496	5754.490	3658.572	5454.836	3358.526
162.961	7.370	5758.220	3689.252	5463.479	3374.166
163.981	7.916	5762.738	3713.870	5475.529	3408.735
165.001	8.189	5765.520	3727.804	5483.256	3436.070
166.021	8.323	5763.495	3730.809	5488.635	3450.830
167.041	8.394	5760.834	3728.929	5486.845	3454.653
168.061	8.473	5760.307	3730.747	5483.535	3452.220
169.081	8.526	5761.003	3734.502	5480.899	3451.936
170.101	8.521	5761.459	3736.009	5476.122	3451.367
171.121	8.488	5757.709	3733.210	5472.004	3449.459
172.141	8.455	5751.955	3727.074	5470.883	3447.932
173.161	8.443	5746.145	3721.195	5469.919	3444.149
174.181	8.483	5740.927	3717.303	5470.152	3443.010
175.201	8.586	5738.427	3716.608	5469.505	3444.729
176.221	8.695	5736.515	3717.264	5464.493	3443.067
177.241	8.853	5731.554	3718.728	5465.275	3444.950
178.261	8.964	5728.203	3719.627	5463.078	3447.893
179.281	9.014	5726.413	3719.701	5459.390	3447.775
180.301	8.992	5724.318	3719.107	5457.858	3448.401
181.321	8.937	5721.304	3716.548	5449.657	3443.768
182.341	8.890	5715.998	3712.925	5444.345	3438.729
183.361	8.840	5710.499	3706.479	5445.641	3438.430
184.381	8.760	5706.934	3700.754	5444.789	3435.766
185.400	8.720	5704.413	3700.642	5444.166	3434.243
186.420	8.670	5700.702	3696.705	5437.043	3432.180
187.440	8.598	5697.685	3690.417	5428.622	3423.935
188.460	8.573	5699.872	3690.688	5429.362	3419.347
189.480	8.621	5698.988	3691.493	5427.968	3419.089
190.500	8.623	5696.442	3690.226	5419.966	3414.672
191.520	8.597	5695.922	3689.874	5412.470	3409.061
192.540	8.507	5694.665	3688.716	5409.741	3406.357
193.560	8.364	5691.632	3686.025	5410.925	3406.710
194.580	8.196	5683.937	3675.761	5408.741	3405.599
195.600	8.040	5677.134	3664.344	5399.553	3395.803
196.620	7.970	5673.027	3659.338	5393.930	3385.020
197.640	7.941	5671.082	3656.731	5393.298	3382.307
198.660	7.977	5667.052	3653.297	5392.724	3381.551
199.680	8.036	5665.471	3651.857	5392.434	3380.513
200.700	8.158	5668.228	3656.659	5391.924	3380.825
201.720	8.292	5667.260	3660.572	5389.976	3382.251
202.740	8.318	5664.479	3660.370	5390.811	3385.982
203.760	8.301	5663.879	3660.099	5388.808	3387.381
204.780	8.214	5661.509	3657.943	5386.229	3386.960
205.800	8.088	5657.477	3653.095	5381.225	3382.399
206.820	8.002	5655.803	3648.245	5374.290	3374.297
207.840	7.938	5653.220	3644.291	5374.936	3371.727
208.860	7.856	5649.046	3639.661	5372.287	3367.549
209.880	7.751	5645.467	3636.035	5370.524	3364.565
210.900	7.619	5641.059	3631.276	5371.413	3365.915
211.920	7.486	5634.468	3620.881	5369.741	3362.731
212.940	7.447	5633.481	3614.546	5370.131	3357.867
213.960	7.617	5636.875	3617.589	5367.636	3353.131
214.980	7.854	5638.755	3623.451	5366.004	3351.260
216.000	8.093	5639.334	3630.958	5368.706	3356.693
217.020	8.318	5638.909	3637.387	5370.674	3363.241
218.040	8.481	5638.191	3640.561	5370.295	3369.277
219.060	8.580	5634.558	3641.171	5366.338	3370.669
220.080	8.649	5631.764	3641.980	5365.565	3371.842
221.100	8.720	5631.420	3642.635	5367.969	3376.552
222.120	8.733	5630.555	3642.485	5366.337	3377.423
223.140	8.742	5628.032	3642.238	5364.485	3375.698
224.160	8.716	5625.631	3640.627	5366.080	3378.195
225.180	8.635	5621.670	3637.214	5365.861	3379.621
226.200	8.517	5620.943	3634.563	5359.981	3373.902
227.220	8.464	5617.565	3629.938	5354.995	3367.821
228.240	8.438	5611.749	3622.981	5351.277	3363.368
229.260	8.454	5607.107	3618.286	5346.117	3356.151
230.280	8.500	5601.692	3614.998	5346.461	3354.544
231.300	8.617	5598.730	3614.144	5349.736	3359.303
232.320	8.796	5597.950	3617.546	5347.590	3360.919
233.340	8.929	5598.254	3621.648	5339.956	3358.774
234.360	9.059	5598.695	3625.200	5338.138	3358.325
235.380	9.218	5598.782	3628.017	5340.529	3364.521
236.399	9.336	5599.573	3630.760	5337.804	3366.342
237.419	9.411	5598.286	3634.289	5331.711	3363.590
238.439	9.401	5594.389	3633.733	5330.885	3365.266
239.459	9.388	5586.871	3627.178	5338.115	3372.019
240.479	9.372	5583.695	3622.679	5338.500	3373.685
241.499	9.383	5582.271	3622.185	5334.471	3370.756
242.519	9.400	5582.548	3622.946	5329.620	3367.964
243.539	9.458	5580.597	3623.325	5320.709	3362.138
244.559	9.462	5577.828	3620.901	5313.332	3356.389
245.579	9.449	5575.708	3619.503	5310.405	3354.402
246.599	9.454	5573.896	3619.526	5310.767	3354.623
247.619	9.401	5573.837	3617.865	5309.019	3355.354
248.639	9.366	5569.912	3614.429	5302.359	3349.279
249.659	9.259	5566.364	3608.799	5304.166	3346.593
250.679	9.231	5566.025	3607.406	5307.011	3349.181
251.699	9.240	5565.990	3607.608	5301.034	3344.446
252.719	9.232	5564.104	3606.767	5298.507	3341.298
253.739	9.196	5561.376	3604.716	5297.989	3340.832
254.759	9.126	5557.894	3599.887	5296.820	3340.067
255.779	9.056	5555.753	3596.365	5292.810	3337.173
256.799	9.010	5554.555	3595.057	5286.930	3330.690
257.819	9.010	5551.639	3591.997	5284.082	3327.446
258.839	9.076	5547.214	3588.357	5277.508	3323.389
259.859	9.058	5542.828	3586.694	5272.061	3317.687
260.879	8.554	5539.163	3587.542	5267.971	3315.133
261.899	7.835	5528.421	3573.970	5265.328	3314.810
262.919	7.006	5514.168	3532.501	5259.728	3308.101
263.939	6.428	5505.557	3501.195	5251.194	3275.125
264.959	6.392	5500.152	3496.162	5245.624	3247.043
265.979	6.355	5497.370	3491.118	5242.053	3242.045
266.999	6.326	5496.607	3489.797	5238.124	3237.556
268.019	6.323	5496.798	3491.817	5234.608	3234.285
269.039	6.309	5496.830	3492.779	5230.878	3232.111
270.059	6.274	5499.042	3491.991	5228.523	3230.625
271.079	6.261	5498.177	3490.580	5224.644	3226.903
272.099	6.300	5495.472	3490.284	5222.581	3223.135
273.119	6.269	5493.014	3486.722	5228.589	3227.294
274.139	6.266	5489.354	3484.571	5228.545	3229.382
275.159	6.253	5486.161	3482.614	5224.583	3225.515
276.179	6.244	5484.599	3480.261	5222.237	3224.321
277.199	6.198	5481.367	3477.371	5222.965	3223.472
278.219	6.270	5467.067	3471.900	5225.007	3223.272
279.239	6.361	5421.810	3445.615	5225.276	3225.680
280.259	6.344	5378.929	3416.949	5220.925	3222.679
281.279	6.393	5368.094	3411.157	5213.337	3219.100
282.299	6.460	5360.702	3408.495	5207.187	3216.054
283.319	6.470	5350.920	3400.959	5205.969	3216.291
284.339	6.460	5344.778	3397.752	5204.454	3218.442
285.359	6.486	5340.222	3395.935	5199.683	3216.392
286.378	6.488	5334.206	3391.168	5192.223	3212.238
287.398	6.474	5330.313	3388.849	5184.923	3203.805
288.418	6.513	5325.512	3386.439	5180.030	3201.002
289.438	6.521	5320.296	3383.193	5173.417	3196.758
290.458	6.513	5314.997	3379.918	5166.813	3192.229
291.478	6.486	5306.385	3374.045	5161.888	3188.487
292.498	6.439	5297.261	3366.918	5158.195	3184.790
293.518	6.421	5291.701	3362.083	5160.393	3196.706
294.538	6.454	5287.306	3360.002	5171.830	3231.008
295.558	6.470	5281.848	3357.043	5178.604	3255.515
296.578	6.523	5274.578	3352.861	5174.690	3251.797
297.598	6.532	5265.014	3346.370	5169.725	3246.224
298.618	6.432	5261.664	3341.739	5164.285	3242.718
299.638	6.454	5262.397	3343.138	5162.635	3241.584
300.658	6.539	5257.136	3342.147	5162.227	3242.751
301.678	6.517	5250.663	3337.829	5160.574	3243.254
302.698	6.492	5247.831	3335.176	5154.062	3239.762
303.718	6.500	5242.850	3332.351	5149.500	3237.572
304.738	6.489	5236.111	3327.695	5143.923	3234.310
305.758	6.454	5228.858	3321.380	5136.353	3227.542
306.778	6.443	5223.139	3317.785	5134.336	3226.035
307.798	6.432	5216.553	3313.671	5134.473	3228.161
308.818	6.435	5212.119	3309.676	5134.436	3229.903
309.838	6.442	5213.050	3309.874	5132.340	3230.504
310.858	6.487	5212.005	3310.491	5128.610	3227.520
311.878	6.530	5205.473	3307.053	5126.935	3225.259
312.898	6.481	5197.383	3300.053	5127.243	3225.311
313.918	6.523	5198.693	3298.819	5126.781	3224.541
314.938	7.100	5205.873	3308.287	5130.328	3226.349
315.958	8.598	5205.533	3313.663	5130.185	3226.518
316.978	10.783	5213.563	3342.146	5125.785	3224.099
317.998	13.350	5239.306	3427.606	5123.420	3222.686
319.018	15.466	5259.355	3511.878	5125.032	3222.503
320.038	16.431	5267.846	3551.959	5124.717	3220.965
321.058	16.920	5270.720	3571.620	5120.611	3216.348
322.078	17.138	5273.233	3580.999	5114.752	3209.667
323.098	17.185	5275.636	3585.328	5110.221	3203.244
324.118	17.216	5277.074	3587.112	5106.187	3197.221
325.138	17.201	5273.326	3584.983	5101.272	3190.000
326.158	17.159	5267.106	3579.666	5097.748	3183.618
327.178	17.105	5265.086	3576.390	5094.269	3179.161
328.198	17.073	5263.370	3574.217	5093.456	3178.831
329.218	17.022	5257.083	3568.101	5091.046	3179.906
330.238	16.949	5253.560	3563.609	5088.670	3179.357
331.258	16.927	5251.524	3561.483	5091.745	3182.298
332.278	16.883	5250.933	3560.284	5092.543	3185.807
333.298	16.922	5248.404	3559.276	5091.111	3185.012
334.318	16.907	5242.660	3553.776	5088.897	3182.300
335.338	16.771	5240.953	3550.158	5082.679	3177.841
336.358	16.712	5241.589	3550.437	5075.353	3171.271
337.377	16.709	5242.265	3550.793	5070.127	3165.032
338.397	16.657	5241.285	3549.436	5067.336	3160.684
339.417	16.580	5238.531	3545.967	5066.170	3157.012
340.437	16.493	5230.691	3538.756	5064.266	3150.940
341.457	16.297	5218.279	3526.850	5057.546	3142.058
342.477	16.015	5212.979	3516.940	5051.235	3131.574
343.497	15.793	5212.658	3512.688	5047.299	3126.635
344.517	15.632	5212.224	3508.274	5043.781	3127.077
345.537	15.498	5210.299	3501.758	5045.477	3131.762
346.557	15.429	5208.775	3496.604	5046.317	3136.402
347.577	15.365	5206.483	3493.945	5041.694	3134.095
348.597	15.310	5203.884	3492.240	5037.852	3130.414
349.617	15.235	5200.716	3488.926	5040.467	3133.612
350.637	15.144	5199.248	3484.818	5041.969	3139.228
351.657	15.219	5194.757	3481.509	5035.246	3137.616
352.677	15.332	5191.196	3478.314	5028.032	3132.088
353.697	15.414	5189.294	3478.863	5026.418	3131.090
354.717	15.553	5186.006	3479.764	5024.769	3129.185
355.737	15.617	5184.756	3480.626	5021.404	3124.506
356.757	15.682	5184.226	3482.872	5017.263	3119.122
357.777	15.788	5182.695	3483.724	5009.608	3110.956
358.797	15.926	5183.255	3486.029	5005.577	3107.994
359.817	16.007	5180.782	3486.670	5004.146	3108.993
360.837	16.064	5173.404	3482.472	4999.911	3106.142
361.857	16.126	5168.416	3479.482	4998.740	3107.640
362.877	16.184	5166.812	3479.387	4998.507	3112.481
363.897	16.178	5165.199	3478.769	4999.317	3116.245
364.917	16.229	5164.601	3479.812	5002.501	3120.058
365.937	16.253	5163.790	3479.795	5003.203	3120.396
366.957	16.265	5163.445	3480.029	4997.780	3116.819
367.977	16.290	5162.199	3479.592	4993.668	3113.382
368.997	16.302	5157.512	3476.735	4991.749	3112.333
370.017	16.292	5153.385	3472.553	4991.136	3112.978
371.037	16.292	5150.753	3470.343	4991.717	3115.557
372.057	16.211	5153.148	3471.122	4988.275	3113.143
373.077	16.148	5156.626	3473.527	4985.228	3109.975
374.097	16.154	5153.592	3472.650	4987.582	3112.157
375.117	16.136	5151.394	3469.395	4991.254	3116.713
376.137	16.163	5148.990	3467.206	4991.923	3119.022
377.157	16.112	5145.673	3462.682	4991.006	3117.824
378.177	16.032	5141.106	3458.556	4991.048	3118.060
379.197	15.975	5137.212	3454.602	4990.207	3115.429
380.217	16.007	5131.504	3450.267	4985.550	3109.413
381.237	16.044	5126.719	3446.824	4981.533	3103.103
382.257	16.065	5122.193	3443.915	4978.361	3098.535
383.277	16.134	5119.702	3442.563	4975.852	3094.752
384.297	16.239	5119.758	3443.913	4973.907	3093.903
385.317	16.300	5119.202	3445.919	4969.946	3093.596
386.337	16.312	5116.003	3444.838	4966.754	3090.977
387.356	16.295	5113.435	3442.643	4965.123	3090.297
388.376	16.323	5113.127	3442.321	4961.841	3086.210
389.396	16.443	5111.520	3443.453	4957.074	3079.781
390.416	16.458	5110.512	3442.736	4952.656	3075.016
391.436	16.445	5107.741	3440.672	4949.617	3071.769
392.456	16.449	5104.956	3439.102	4943.623	3061.970
393.476	16.463	5100.819	3437.364	4932.323	3043.334
394.496	16.477	5095.972	3433.959	4918.562	3010.702
395.516	16.486	5091.974	3429.994	4911.548	2983.639
396.536	16.472	5092.453	3428.796	4910.978	2979.430
397.556	16.493	5092.576	3430.677	4907.481	2979.470
398.576	16.460	5090.218	3428.729	4905.028	2977.270
399.596	16.450	5089.724	3427.841	4901.960	2976.652
400.616	16.450	5089.074	3428.194	4898.448	2974.374
401.636	16.459	5085.658	3425.323	4897.540	2972.400
402.656	16.474	5081.257	3421.460	4895.764	2972.686
403.676	16.465	5076.913	3419.186	4892.250	2968.991
404.696	16.429	5073.049	3415.049	4894.545	2971.652
405.716	16.453	5069.474	3412.157	4900.114	2994.110
406.736	16.481	5065.762	3409.083	4908.004	3025.583
407.756	16.510	5059.253	3404.797	4910.597	3042.285
408.776	16.460	5055.610	3401.185	4909.003	3044.228
409.796	16.454	5058.688	3403.012	4906.229	3044.162
410.816	16.490	5063.430	3407.703	4900.177	3040.757
411.836	16.502	5064.103	3409.229	4895.514	3039.093
412.856	16.475	5061.528	3407.710	4897.141	3041.798
413.876	16.455	5057.823	3404.167	4894.729	3042.431
414.896	16.448	5052.985	3400.784	4890.384	3039.916
415.916	16.430	5051.997	3398.423	4887.861	3037.227
416.936	16.440	5050.633	3397.878	4884.856	3035.049
417.956	16.438	5046.461	3395.790	4883.118	3034.620
418.976	16.395	5045.357	3392.937	4880.317	3034.235
419.996	16.398	5042.101	3390.677	4877.177	3033.152
421.016	16.399	5040.270	3388.368	4877.250	3034.492
422.036	16.423	5038.566	3386.700	4878.842	3039.337
423.056	16.460	5034.194	3384.959	4876.698	3040.462
424.076	16.433	5031.775	3382.700	4871.368	3036.651
425.096	16.431	5028.452	3380.089	4867.906	3035.307
426.116	16.445	5026.825	3379.040	4865.695	3033.485
427.136	16.465	5027.461	3379.441	4863.652	3031.011
428.156	16.488	5027.844	3380.769	4862.725	3028.471
429.176	16.500	5026.372	3380.273	4859.211	3024.622
430.196	16.511	5021.242	3376.642	4854.124	3020.502
431.216	16.511	5016.154	3371.879	4853.000	3017.632
432.236	16.519	5016.212	3371.512	4853.559	3017.116
433.256	16.533	5017.478	3373.022	4853.412	3017.174
434.276	16.547	5014.897	3371.617	4851.426	3016.232
435.296	16.550	5015.290	3371.839	4848.003	3013.481
436.316	16.597	5016.200	3373.351	4845.347	3010.527
437.336	16.609	5011.114	3370.296	4843.975	3009.536
438.355	16.548	5007.472	3365.790	4841.760	3007.532
439.375	16.562	5006.614	3365.206	4843.781	3007.129
440.395	16.594	5005.281	3365.337	4845.344	3006.232
441.415	16.562	5003.643	3362.864	4843.003	3001.241
442.435	16.547	5006.865	3364.247	4840.216	2998.377
443.455	16.584	5010.965	3369.362	4839.191	3000.171
444.475	16.634	5008.209	3368.670	4838.676	3002.933
445.495	16.620	5000.724	3362.830	4838.538	3005.308
446.515	16.594	4995.446	3358.012	4836.818	3004.191
447.535	16.605	4989.582	3353.707	4837.104	3002.470
448.555	16.594	4983.024	3348.259	4836.143	3002.568
449.575	16.566	4979.564	3344.926	4836.632	3001.558
450.595	16.519	4975.082	3341.728	4837.599	3000.477
451.615	16.468	4968.760	3336.296	4830.777	2995.765
452.635	16.507	4965.145	3333.039	4823.085	2987.227
453.655	16.459	4964.843	3331.939	4822.851	2985.929
454.675	16.381	4966.712	3332.350	4824.695	2991.243
455.695	16.362	4968.425	3333.676	4825.801	2994.556
456.715	16.400	4972.655	3336.967	4825.165	2996.576
457.735	16.427	4976.805	3340.873	4822.577	2997.050
458.755	16.455	4974.149	3340.336	4818.938	2995.662
459.775	16.443	4965.144	3332.767	4817.050	2994.015
460.795	16.374	4959.570	3326.988	4812.534	2989.858
461.815	16.316	4955.956	3324.080	4809.245	2987.268
462.835	16.249	4953.538	3321.780	4807.434	2985.243
463.855	16.198	4952.449	3319.649	4803.316	2982.059
464.875	16.247	4952.607	3319.285	4798.502	2978.101
465.895	16.270	4950.880	3317.729	4797.652	2977.697
466.915	16.248	4948.104	3315.305	4797.880	2980.726
467.935	16.193	4947.324	3313.302	4796.279	2983.459
468.955	16.239	4943.365	3311.921	4798.291	2984.327
469.975	16.205	4939.121	3307.773	4804.253	2989.432
470.995	16.231	4936.112	3305.452	4804.885	2993.716
472.015	16.292	4927.971	3301.273	4799.242	2991.205
473.035	16.243	4922.149	3294.521	4790.609	2984.381
474.055	16.265	4920.039	3293.034	4787.710	2978.861
475.075	16.265	4920.664	3293.394	4787.122	2976.884
476.095	16.337	4922.400	3296.515	4785.699	2975.022
477.115	16.396	4920.933	3297.020	4785.371	2973.884
478.135	16.345	4918.996	3295.565	4782.354	2973.044
479.155	16.333	4914.859	3293.086	4780.616	2971.642
480.175	16.352	4910.983	3290.246	4781.372	2973.953
481.195	16.395	4910.621	3290.288	4776.759	2974.511
482.215	16.440	4907.647	3289.117	4774.801	2972.972
483.235	16.435	4903.215	3286.232	4777.329	2976.016
484.255	16.446	4902.015	3284.313	4778.391	2980.620
485.275	16.499	4904.673	3286.972	4777.296	2979.611
486.295	16.535	4903.748	3287.631	4775.021	2976.837
487.315	16.521	4899.612	3284.544	4771.021	2971.613
488.334	16.521	4896.677	3282.248	4767.692	2966.167
489.354	16.543	4895.104	3281.463	4765.686	2963.691
490.374	16.535	4892.914	3279.663	4761.449	2960.546
491.394	16.517	4889.869	3277.468	4756.734	2953.133
492.414	16.526	4887.412	3276.230	4752.805	2944.332
493.434	16.454	4883.801	3272.871	4751.185	2937.849
494.454	16.367	4886.517	3272.774	4749.031	2933.117
495.474	16.425	4889.367	3276.627	4747.165	2929.784
496.494	16.521	4886.055	3276.253	4743.381	2926.179
497.514	16.511	4879.456	3271.203	4738.205	2920.640
498.534	16.412	4873.427	3265.035	4734.065	2916.841
499.554	16.417	4869.993	3262.329	4731.642	2916.130
500.574	16.451	4867.467	3260.287	4729.335	2918.236
501.594	16.485	4864.597	3259.291	4730.070	2922.269
502.614	16.482	4856.787	3254.027	4730.660	2924.501
503.634	16.441	4850.787	3248.151	4727.292	2922.267
504.654	16.470	4847.984	3245.334	4724.437	2918.965
505.674	16.495	4843.771	3242.594	4725.475	2920.419
506.694	16.451	4845.109	3241.909	4725.118	2921.192
507.714	16.449	4849.092	3245.320	4720.881	2917.941
508.734	16.498	4850.843	3247.509	4717.716	2917.621
509.754	16.540	4847.631	3245.650	4717.473	2924.333
510.774	16.489	4841.855	3241.260	4713.293	2925.900
511.794	16.446	4836.154	3236.496	4702.000	2898.985
512.814	16.412	4832.671	3233.094	4688.758	2863.256
513.834	16.384	4830.893	3231.159	4683.967	2850.305
514.854	16.395	4828.905	3229.134	4683.246	2849.053
515.874	16.432	4828.131	3228.549	4682.139	2849.980
516.894	16.419	4830.727	3229.713	4678.510	2848.170
517.914	16.429	4831.197	3230.908	4674.684	2845.013
518.934	16.419	4830.032	3229.126	4674.004	2844.866
519.954	16.422	4829.070	3227.840	4671.545	2843.853
520.974	16.463	4827.594	3228.069	4671.901	2847.752
521.994	16.452	4826.434	3226.674	4677.327	2868.460
523.014	16.464	4826.013	3226.772	4678.329	2884.832
524.034	16.493	4822.375	3225.463	4677.561	2886.202
525.054	16.450	4822.955	3224.809	4676.175	2887.663
526.074	16.497	4823.390	3225.985	4673.151	2885.474
527.094	16.565	4816.232	3222.755	4670.478	2881.952
528.114	16.545	4807.612	3215.385	4670.660	2882.222
529.134	16.522	4802.376	3209.910	4670.190	2883.690
530.154	16.533	4796.934	3206.372	4668.648	2881.623
531.174	16.513	4793.149	3202.827	4665.448	2877.284
532.194	16.503	4795.011	3203.300	4664.951	2874.184
533.214	16.535	4796.925	3205.752	4664.818	2874.062
534.234	16.488	4796.074	3205.009	4663.135	2874.931
535.254	16.449	4793.541	3202.446	4662.425	2875.949
536.274	16.491	4792.425	3201.779	4665.335	2880.773
537.294	16.505	4788.749	3200.437	4665.740	2886.519
538.314	16.427	4782.856	3194.453	4661.098	2885.265
539.333	16.426	4780.459	3191.499	4657.647	2882.902
540.353	16.449	4781.871	3193.010	4658.375	2883.699
541.373	16.404	4781.743	3192.758	4657.634	2885.539
542.393	16.403	4781.932	3193.585	4655.744	2884.735
543.413	16.437	4780.088	3192.549	4656.080	2883.738
544.433	16.462	4777.274	3190.133	4652.863	2882.639
545.453	16.449	4775.754	3189.427	4650.426	2879.507
546.473	16.438	4774.017	3187.983	4651.254	2879.736
547.493	16.483	4775.086	3188.098	4652.424	2879.252
548.513	16.484	4775.205	3188.759	4652.085	2878.092
549.533	16.478	4770.049	3186.051	4646.566	2872.922
550.553	16.403	4759.491	3177.500	4641.886	2863.821
551.573	16.310	4751.945	3169.373	4642.022	2861.874
552.593	16.292	4750.133	3166.660	4642.145	2863.209
553.613	16.260	4749.238	3165.656	4642.937	2863.972
554.633	16.222	4748.119	3163.917	4644.757	2867.135
555.653	16.185	4744.387	3161.211	4644.057	2868.969
556.673	16.078	4742.332	3157.078	4639.196	2867.913
557.693	16.008	4742.372	3155.128	4634.679	2866.044
558.713	15.974	4738.715	3152.715	4634.933	2866.514
559.733	15.910	4733.310	3147.867	4636.068	2868.247
560.753	15.890	4731.843	3145.318	4634.523	2870.166
561.773	15.948	4733.835	3146.969	4627.070	2866.887
562.793	16.055	4733.285	3148.436	4621.230	2862.096
563.813	16.109	4731.096	3147.193	4618.458	2859.688
564.833	16.140	4729.709	3147.478	4618.398	2859.998
565.853	16.221	4726.457	3146.746	4616.216	2859.584
566.873	16.286	4724.829	3145.231	4610.999	2855.570
567.893	16.274	4723.819	3145.109	4606.556	2850.118
568.913	16.274	4722.678	3145.090	4603.282	2847.495
569.933	16.286	4722.305	3144.678	4601.781	2847.104
570.953	16.267	4723.068	3145.007	4599.248	2846.268
571.973	16.303	4720.308	3143.941	4594.119	2840.440
572.993	16.286	4718.648	3141.651	4586.411	2828.052
574.013	16.241	4717.359	3140.761	4577.615	2812.892
575.033	16.258	4712.631	3137.654	4568.554	2794.101
576.053	16.218	4706.251	3131.637	4561.984	2772.657
577.073	16.103	4706.042	3128.435	4563.014	2765.226
578.093	16.080	4708.724	3130.574	4566.149	2775.251
579.113	15.997	4708.604	3129.633	4566.799	2781.962
580.133	15.865	4708.293	3127.416	4564.390	2781.099
581.153	15.855	4706.428	3126.775	4559.819	2778.344
582.173	15.807	4700.002	3121.254	4557.339	2778.269
583.193	15.680	4696.026	3114.504	4559.789	2781.632
584.213	15.515	4698.448	3113.319	4562.417	2787.905
585.233	15.369	4701.171	3113.634	4562.390	2793.065
586.253	15.334	4698.004	3110.583	4558.245	2792.670
587.273	15.323	4689.717	3102.544	4556.859	2793.003
588.293	15.217	4683.901	3094.298	4559.797	2798.878
589.312	15.241	4686.073	3095.220	4561.231	2805.506
590.332	15.378	4688.788	3099.838	4559.292	2805.526
591.352	15.398	4688.976	3100.790	4556.464	2804.506
592.372	15.426	4689.001	3101.989	4555.772	2806.180
593.392	15.570	4685.663	3101.381	4554.285	2806.318
594.412	15.737	4680.503	3098.424	4552.153	2804.544
595.432	15.916	4678.687	3099.464	4549.314	2802.475
596.452	16.153	4677.786	3104.201	4546.140	2801.575
597.472	16.338	4676.023	3107.067	4541.973	2799.930
598.492	16.473	4674.627	3109.673	4540.017	2798.891
599.512	16.577	4673.081	3110.826	4540.746	2801.549
600.532	16.642	4672.033	3111.569	4540.603	2803.943
601.552	16.742	4670.193	3112.066	4541.899	2806.530
602.572	16.795	4668.597	3111.334	4544.742	2811.356
603.592	16.901	4665.172	3110.795	4543.601	2812.479
604.612	16.920	4664.589	3110.100	4542.008	2811.259
605.632	16.870	4663.775	3109.578	4544.623	2814.533
606.652	16.919	4661.835	3109.561	4546.819	2816.036
607.672	16.976	4658.107	3108.427	4546.774	2815.332
608.692	16.984	4652.499	3104.067	4543.280	2811.640
609.712	16.969	4648.436	3100.765	4539.448	2805.832
610.732	16.967	4645.690	3098.722	4539.455	2805.174
611.752	17.006	4644.769	3098.127	4537.591	2805.403
612.772	17.079	4644.182	3098.980	4533.910	2801.600
613.792	17.103	4645.197	3099.445	4531.713	2800.232
614.812	17.162	4648.832	3103.075	4527.801	2796.868
615.832	17.261	4649.965	3106.854	4521.568	2788.455
616.852	17.227	4650.663	3107.495	4521.720	2786.242
617.872	17.071	4649.755	3106.573	4524.760	2792.318
618.892	16.637	4645.248	3101.623	4526.728	2799.889
619.912	15.713	4638.166	3089.709	4529.452	2805.936
620.932	13.875	4626.485	3066.854	4524.898	2802.013
621.952	11.411	4608.188	3023.001	4512.550	2771.433
622.972	8.999	4581.131	2942.509	4504.195	2744.591
623.992	7.314	4563.227	2871.746	4500.742	2741.118
625.012	6.741	4555.374	2847.957	4498.404	2738.156
626.032	6.562	4548.462	2838.838	4492.009	2734.260
627.052	6.499	4545.520	2834.006	4485.796	2730.093
628.072	6.483	4542.410	2831.914	4481.676	2726.248
629.092	6.505	4536.902	2828.978	4477.741	2722.521
630.112	6.493	4531.890	2825.132	4478.915	2723.035
631.132	6.454	4529.168	2822.125	4479.768	2726.540
632.152	6.467	4528.850	2821.347	4472.972	2722.384
633.172	6.498	4529.745	2823.146	4470.305	2717.370
634.192	6.501	4526.260	2821.771	4470.254	2720.022
635.212	6.482	4522.314	2818.064	4468.829	2721.207
636.232	6.511	4523.954	2818.533	4465.835	2717.863
637.252	6.541	4524.119	2819.718	4462.726	2713.524
638.272	6.557	4519.919	2818.069	4462.448	2713.254
639.292	6.522	4516.874	2814.348	4459.477	2713.485
640.311	6.512	4513.284	2811.615	4427.639	2699.126
641.331	6.475	4512.005	2810.340	4376.662	2666.884
642.351	6.493	4510.282	2809.675	4342.948	2641.676
643.371	6.514	4508.643	2808.460	4320.686	2628.965
644.391	6.490	4511.814	2809.749	4302.548	2616.427
645.411	6.494	4510.787	2810.130	4290.192	2608.291
646.431	6.504	4507.371	2808.000	4280.186	2602.108
647.451	6.506	4506.256	2806.458	4271.623	2596.398
648.471	6.526	4506.196	2806.760	4262.209	2590.937
649.491	6.503	4501.227	2804.554	4256.664	2587.226
650.511	6.435	4494.432	2799.078	4253.833	2585.840
651.531	6.402	4493.752	2796.561	4249.131	2584.310
652.551	6.444	4491.218	2796.278	4241.166	2580.268
653.571	6.459	4488.064	2793.597	4233.072	2574.282
654.591	6.412	4490.116	2794.276	4226.241	2568.669
655.611	6.523	4493.372	2797.551	4219.669	2565.171
656.631	6.459	4500.792	2797.607	4214.136	2562.220
657.651	6.260	4514.127	2804.340	4206.098	2557.185
658.671	6.368	4521.619	2813.530	4199.322	2551.829
659.691	6.444	4519.061	2812.757	4193.897	2547.953
660.711	6.535	4516.029	2813.038	4190.026	2545.425
661.731	6.564	4511.300	2810.816	4187.163	2544.019
662.751	6.534	4507.996	2809.206	4183.508	2541.518
663.771	6.551	4506.455	2808.085	4174.811	2536.040
664.791	6.490	4504.555	2804.539	4165.820	2529.302
665.811	6.554	4501.095	2804.065	4162.813	2526.644
666.831	6.559	4495.984	2800.972	4160.760	2525.124
667.851	6.575	4491.757	2798.329	4161.840	2526.383
668.871	6.882	4485.290	2792.451	4161.074	2527.714
669.891	7.482	4482.822	2789.604	4156.324	2524.451
670.911	8.281	4488.643	2810.065	4151.305	2523.068
671.931	8.980	4495.349	2841.064	4145.780	2521.021
672.951	9.182	4494.114	2848.906	4151.008	2539.512
673.971	9.111	4490.863	2843.371	4168.399	2598.677
674.991	9.120	4488.445	2840.223	4184.379	2658.889
676.011	9.138	4488.195	2840.028	4195.148	2694.012
677.031	9.194	4488.401	2842.192	4199.691	2713.994
678.051	9.229	4486.260	2841.669	4201.651	2722.604
679.071	9.274	4485.082	2841.276	4201.845	2725.344
680.091	9.337	4482.338	2840.709	4199.070	2725.566
681.111	9.367	4478.057	2838.974	4194.476	2721.839
682.131	9.385	4473.918	2835.587	4191.129	2718.138
683.151	9.430	4468.049	2831.381	4190.531	2717.016
684.171	9.488	4465.271	2830.852	4191.442	2717.292
685.191	9.528	4462.976	2830.037	4188.128	2716.746
686.211	9.566	4459.689	2829.083	4181.577	2711.965
687.231	9.573	4456.222	2827.404	4177.664	2707.561
688.251	9.552	4451.481	2824.083	4177.591	2707.434
689.271	9.498	4448.220	2820.598	4177.232	2708.109
690.290	9.474	4447.489	2819.011	4175.238	2708.099
691.310	9.466	4443.562	2816.635	4172.857	2706.373
692.330	9.450	4442.172	2815.029	4171.203	2704.545
693.350	9.430	4443.481	2815.261	4169.020	2704.232
694.370	9.432	4443.299	2816.511	4167.268	2703.440
695.390	9.427	4439.685	2815.502	4164.712	2701.247
696.410	9.345	4436.504	2811.546	4163.876	2700.006
697.430	9.208	4433.846	2807.170	4162.954	2700.347
698.450	9.075	4429.447	2802.335	4161.675	2699.528
699.470	8.913	4426.578	2797.703	4159.259	2698.493
700.490	8.778	4425.441	2794.990	4154.718	2695.080
701.510	8.655	4421.975	2790.378	4151.959	2692.154
702.530	8.516	4415.945	2783.081	4151.959	2691.362
703.550	8.453	4411.378	2777.060	4151.127	2692.009
704.570	8.478	4407.621	2773.375	4148.923	2689.917
705.590	8.543	4406.208	2772.502	4143.812	2686.569
706.610	8.663	4404.299	2773.887	4138.340	2682.040
707.630	8.735	4402.305	2774.244	4135.093	2679.901
708.650	8.775	4401.479	2774.325	4131.385	2676.815
709.670	8.812	4401.271	2775.501	4126.337	2673.282
710.690	8.788	4400.959	2775.508	4122.976	2670.691
711.710	8.758	4398.796	2773.447	4122.844	2669.537
712.730	8.669	4396.381	2771.032	4125.036	2672.049
713.750	8.550	4394.167	2768.151	4124.114	2672.416
714.770	8.392	4391.330	2764.257	4120.157	2670.023
715.790	8.233	4386.441	2759.232	4118.062	2667.985
716.810	8.044	4380.210	2752.548	4113.917	2665.128
717.830	7.800	4373.727	2742.981	4109.509	2662.003
718.850	7.626	4367.226	2733.504	4103.923	2657.867
719.870	7.562	4363.596	2726.280	4099.358	2654.718
720.890	7.656	4362.067	2724.127	4097.113	2652.994
721.910	7.807	4362.423	2727.238	4095.323	2651.680
722.930	7.926	4362.139	2731.306	4093.228	2649.986
723.950	7.979	4361.778	2732.931	4090.303	2648.250
724.970	7.982	4360.817	2731.041	4087.687	2645.422
725.990	8.064	4359.364	2730.373	4086.227	2644.675
727.010	8.240	4357.776	2732.959	4085.970	2643.590
728.030	8.296	4356.419	2734.016	4087.684	2643.958
729.050	8.282	4355.366	2733.704	4087.750	2645.688
730.070	8.300	4354.746	2735.094	4084.741	2644.716
731.090	8.275	4352.755	2733.780	4081.077	2642.698
732.110	8.153	4348.852	2729.459	4078.696	2640.529
733.130	8.010	4344.960	2723.872	4076.681	2639.074
734.150	7.962	4341.669	2719.501	4072.080	2636.485
735.170	7.985	4338.257	2716.171	4066.276	2631.519
736.190	8.041	4334.971	2714.101	4061.201	2627.038
737.210	8.103	4332.882	2712.178	4056.067	2623.114
738.230	8.243	4332.617	2713.497	4051.413	2619.103
739.250	8.389	4334.386	2717.260	4047.664	2615.760
740.270	8.578	4335.200	2722.416	4045.778	2613.618
741.289	8.663	4334.117	2724.362	4044.108	2613.244
742.309	8.660	4333.865	2724.055	4040.875	2610.655
743.329	8.631	4332.742	2723.161	4036.545	2608.001
744.349	8.643	4332.106	2722.521	4035.135	2606.019
745.369	8.749	4330.517	2722.591	4036.518	2606.358
746.389	8.793	4327.506	2721.416	4037.023	2608.407
747.409	8.817	4324.957	2721.123	4036.000	2607.591
748.429	8.863	4323.319	2720.183	4035.156	2607.023
749.449	8.878	4324.178	2719.817	4031.791	2604.764
750.469	8.953	4324.783	2722.118	4029.171	2603.687
751.489	8.984	4324.411	2723.465	4029.206	2603.058
752.509	8.989	4322.175	2722.496	4028.388	2602.636
753.529	8.994	4319.521	2720.373	4023.116	2598.797
754.549	8.929	4316.060	2717.878	4019.643	2595.694
755.569	8.837	4312.935	2715.069	4019.020	2595.126
756.589	8.651	4309.423	2709.217	4018.292	2594.593
757.609	8.530	4306.105	2704.785	4014.024	2592.243
758.629	8.453	4305.590	2702.129	4009.983	2588.487
759.649	8.437	4305.093	2699.698	4005.227	2585.106
760.669	8.503	4304.123	2699.586	4000.791	2581.686
761.689	8.591	4302.688	2700.168	4001.255	2581.029
762.709	8.626	4298.780	2698.829	4002.394	2582.748
763.729	8.567	4294.319	2695.256	3998.370	2581.202
764.749	8.475	4291.785	2692.940	3990.450	2574.792
765.769	8.358	4289.998	2689.685	3985.415	2568.652
766.789	8.281	4286.339	2685.316	3986.441	2568.993
767.809	8.107	4284.252	2682.835	3988.692	2572.026
768.829	7.703	4280.260	2678.579	3985.202	2571.056
769.849	6.920	4274.060	2667.335	3982.120	2568.244
770.869	6.085	4265.698	2647.583	3981.922	2567.606
771.889	5.381	4258.131	2621.270	3982.475	2567.879
772.909	5.027	4254.670	2606.270	3979.377	2566.411
773.929	4.998	4253.181	2603.732	3976.868	2564.557
774.949	5.042	4252.435	2604.036	3977.426	2564.615
775.969	5.117	4252.507	2606.435	3976.775	2564.537
776.989	5.050	4249.947	2604.601	3976.638	2564.985
778.009	5.052	4245.829	2602.105	3974.439	2564.190
779.029	5.025	4242.671	2598.358	3971.639	2561.840
780.049	5.125	4238.009	2596.324	3970.831	2560.792
781.069	5.637	4233.506	2592.953	3969.541	2560.278
782.089	6.372	4233.803	2595.889	3964.894	2557.265
783.109	7.299	4241.445	2622.070	3958.508	2552.026
784.129	8.055	4246.244	2647.817	3955.822	2548.411
785.149	8.282	4245.678	2654.197	3954.473	2547.724
786.169	8.362	4243.948	2654.594	3953.416	2546.352
787.189	8.413	4243.000	2654.257	3952.020	2545.875
788.209	8.475	4242.693	2654.933	3950.090	2543.855
789.229	8.579	4241.918	2656.682	3950.550	2543.196
790.249	8.669	4239.787	2657.558	3952.312	2546.107
791.268	8.670	4237.652	2656.725	3951.389	2546.599
792.288	8.654	4235.994	2654.725	3946.888	2542.697
793.308	8.693	4233.951	2653.268	3943.378	2538.994
794.328	8.718	4232.662	2652.449	3940.595	2536.750
795.348	8.782	4233.864	2654.401	3937.223	2534.655
796.368	8.882	4234.855	2656.269	3934.928	2532.963
797.388	8.969	4235.984	2657.961	3934.957	2531.463
798.408	9.093	4234.443	2660.916	3935.012	2532.268
799.428	9.189	4231.228	2661.392	3934.407	2532.073
800.448	9.172	4229.056	2658.131	3934.444	2532.268
801.468	9.216	4227.501	2658.903	3933.258	2532.314
802.488	9.210	4227.384	2660.036	3930.716	2530.028
803.508	9.130	4224.589	2656.918	3927.754	2527.036
804.528	9.061	4221.348	2653.170	3925.164	2525.419
805.548	8.968	4221.518	2650.677	3920.344	2522.317
806.568	8.947	4220.804	2650.267	3917.317	2518.826
807.588	8.919	4218.984	2648.757	3915.783	2517.713
808.608	8.900	4217.831	2646.965	3909.753	2514.078
809.628	8.903	4217.483	2646.614	3903.078	2508.448
810.648	8.931	4215.413	2646.315	3898.399	2504.091
811.668	8.948	4209.434	2642.600	3895.463	2501.795
812.688	8.873	4204.964	2637.172	3893.891	2500.467
813.708	8.867	4202.164	2634.833	3892.433	2498.798
814.728	8.839	4199.260	2632.847	3893.305	2498.319
815.748	8.691	4195.360	2629.176	3892.671	2498.786
816.768	8.530	4192.950	2625.886	3888.777	2496.232
817.788	8.479	4190.687	2621.620	3887.597	2493.619
818.808	8.463	4188.221	2616.971	3886.903	2493.594
819.828	8.566	4185.773	2616.515	3883.433	2491.464
820.848	8.650	4184.760	2617.916	3879.629	2487.750
821.868	8.696	4184.146	2619.422	3873.806	2482.803
822.888	8.722	4182.419	2619.897	3870.356	2478.175
823.908	8.655	4179.903	2616.714	3870.833	2476.316
824.928	8.629	4179.706	2615.672	3870.679	2475.732
825.948	8.609	4179.179	2615.513	3868.594	2472.924
826.968	8.562	4175.902	2612.799	3865.123	2468.762
827.988	8.462	4171.687	2607.432	3861.557	2466.516
829.008	8.438	4169.363	2604.202	3858.167	2466.283
830.028	8.498	4168.830	2602.887	3853.152	2465.490
831.048	8.635	4165.994	2602.939	3850.991	2465.282
832.068	8.754	4162.165	2602.725	3850.939	2466.135
833.088	8.788	4161.368	2602.465	3850.693	2467.045
834.108	8.882	4163.333	2605.749	3850.680	2469.377
835.128	8.934	4163.935	2608.271	3846.988	2469.220
836.148	8.922	4163.261	2608.744	3840.267	2464.962
837.168	8.898	4162.468	2607.811	3833.641	2459.394
838.188	8.855	4160.710	2605.745	3830.455	2456.347
839.208	8.811	4158.057	2602.962	3829.192	2456.132
840.228	8.793	4156.782	2601.748	3825.125	2454.743
841.247	8.830	4154.314	2599.472	3820.644	2451.469
842.267	8.896	4151.158	2596.295	3818.833	2449.671
843.287	9.025	4149.331	2597.370	3818.261	2449.986
844.307	9.073	4147.598	2598.333	3814.183	2447.604
845.327	9.136	4146.832	2599.410	3811.038	2444.233
846.347	9.215	4146.595	2599.378	3810.060	2444.663
847.367	9.302	4145.738	2600.878	3807.233	2443.817
848.387	9.335	4144.984	2602.193	3802.478	2440.227
849.407	9.305	4143.657	2601.116	3799.480	2436.378
850.427	9.261	4141.252	2599.230	3801.826	2436.917
851.447	9.152	4137.709	2595.055	3804.258	2441.245
852.467	9.087	4133.560	2590.983	3801.743	2441.505
853.487	9.041	4130.136	2586.688	3796.077	2437.791
854.507	9.050	4129.285	2585.355	3792.800	2433.809
855.527	9.123	4127.801	2585.069	3790.304	2431.866
856.547	9.227	4124.564	2583.959	3787.614	2430.822
857.567	9.324	4123.266	2584.810	3785.302	2428.616
858.587	9.449	4123.125	2586.086	3782.579	2426.256
859.607	9.564	4121.685	2587.125	3779.111	2423.756
860.627	9.656	4118.805	2588.292	3776.501	2421.770
861.647	9.604	4114.814	2586.646	3778.200	2422.531
862.667	9.485	4111.251	2582.661	3779.474	2423.952
863.687	9.400	4109.039	2579.661	3779.845	2424.346
864.707	9.294	4105.079	2574.178	3779.287	2425.102
865.727	9.183	4102.781	2570.105	3776.293	2423.827
866.747	9.081	4101.310	2569.148	3773.491	2421.356
867.767	8.905	4099.608	2566.836	3771.550	2418.723
868.787	8.682	4094.943	2559.754	3769.872	2418.017
869.807	8.407	4089.090	2550.364	3765.538	2415.356
870.827	8.202	4087.452	2544.344	3761.749	2411.710
871.847	8.088	4088.437	2541.824	3758.599	2409.482
872.867	8.085	4086.440	2540.508	3756.295	2407.651
873.887	8.017	4082.898	2536.632	3756.119	2407.735
874.907	8.038	4080.238	2533.985	3755.353	2407.684
875.927	8.150	4077.882	2532.209	3755.609	2406.891
876.947	8.322	4077.177	2533.412	3756.893	2408.967
877.967	8.471	4078.386	2538.244	3754.972	2408.629
878.987	8.542	4079.405	2542.147	3752.008	2406.256
880.007	8.557	4078.514	2542.207	3752.126	2404.821
881.027	8.548	4077.300	2540.110	3751.549	2405.732
882.047	8.569	4077.280	2540.195	3749.448	2405.536
883.067	8.593	4075.023	2539.559	3743.976	2401.846
884.087	8.644	4074.621	2538.237	3740.050	2397.684
885.107	8.855	4075.638	2539.720	3738.630	2396.258
886.127	8.963	4077.250	2544.720	3740.398	2396.513
887.147	8.587	4078.371	2551.742	3741.482	2398.328
888.167	7.861	4072.324	2545.192	3739.534	2398.331
889.187	7.003	4061.428	2515.039	3737.228	2396.150
890.207	6.370	4054.507	2489.785	3737.004	2395.431
891.227	6.316	4049.812	2485.249	3734.624	2394.608
892.246	6.332	4046.051	2483.040	3732.080	2392.238
893.266	6.317	4044.872	2481.262	3729.545	2390.884
894.286	6.364	4043.647	2480.988	3724.189	2387.804
895.306	6.395	4042.780	2481.073	3719.404	2382.806
896.326	6.634	4040.465	2480.387	3717.390	2380.185
897.346	7.087	4038.361	2478.167	3717.247	2379.758
898.366	7.687	4042.095	2489.082	3718.225	2381.729
899.386	8.267	4047.284	2508.428	3718.160	2382.684
900.406	8.550	4048.757	2517.928	3717.210	2381.606
901.426	8.576	4049.277	2519.969	3715.462	2379.971
902.446	8.564	4048.156	2520.140	3712.397	2377.732
903.466	8.559	4046.361	2518.588	3709.589	2375.530
904.486	8.541	4045.191	2516.821	3708.122	2374.034
905.506	8.530	4043.054	2516.056	3707.107	2373.758
906.526	8.447	4039.156	2513.042	3705.711	2373.705
907.546	8.339	4037.201	2510.074	3705.042	2372.435
908.566	8.305	4033.965	2506.242	3706.920	2373.552
909.586	8.332	4030.879	2502.646	3707.917	2375.086
910.606	8.401	4029.097	2501.814	3708.544	2375.639
911.626	8.551	4028.873	2503.814	3707.838	2375.370
912.646	8.698	4031.202	2506.262	3703.594	2373.258
913.666	8.888	4031.725	2510.783	3698.757	2369.170
914.686	9.030	4029.333	2512.823	3697.382	2366.508
915.706	9.076	4026.150	2511.074	3696.354	2366.964
916.726	9.131	4024.836	2510.262	3693.122	2365.503
917.746	9.186	4024.919	2511.372	3689.857	2362.273
918.766	9.214	4024.107	2511.854	3689.351	2361.197
919.786	9.240	4023.774	2511.885	3688.661	2361.249
920.806	9.249	4023.837	2512.420	3686.502	2360.487
921.826	9.252	4023.499	2512.886	3683.298	2358.146
922.846	9.225	4020.687	2510.888	3682.432	2356.695
923.866	9.121	4017.176	2507.303	3682.226	2357.493
924.886	9.008	4013.329	2504.035	3681.804	2356.379
925.906	8.850	4009.947	2498.935	3682.518	2356.593
926.926	8.692	4008.103	2494.032	3680.406	2356.264
927.946	8.628	4005.856	2490.843	3676.056	2353.572
928.966	8.656	4002.383	2489.092	3674.131	2351.005
929.986	8.680	3999.292	2486.105	3672.978	2350.714
931.006	8.771	3995.957	2484.143	3670.976	2349.224
932.026	8.872	3993.206	2483.975	3668.155	2347.511
933.046	8.960	3989.505	2483.110	3666.015	2345.928
934.066	9.018	3988.970	2483.557	3664.740	2344.797
935.086	9.093	3989.456	2485.785	3660.773	2342.114
936.106	9.172	3990.899	2487.265	3657.740	2339.470
937.126	9.246	3990.668	2488.496	3659.000	2339.422
938.146	9.355	3988.346	2489.901	3658.883	2341.031
939.166	9.351	3985.541	2487.998	3656.107	2339.559
940.186	9.368	3982.629	2486.410	3654.027	2337.602
941.206	9.385	3980.090	2484.636	3652.993	2336.438
942.225	9.352	3976.975	2482.011	3654.072	2337.031
943.245	9.315	3975.641	2481.319	3654.742	2338.477
944.265	9.277	3976.434	2480.971	3654.139	2338.539
945.285	9.259	3975.979	2479.706	3652.766	2337.407
946.305	9.233	3975.402	2478.713	3650.312	2336.134
947.325	9.190	3974.073	2479.135	3648.163	2333.056
948.345	8.977	3971.555	2477.274	3647.482	2332.270
949.365	8.599	3966.629	2470.174	3647.413	2333.182
950.385	7.976	3961.033	2458.479	3644.974	2331.333
951.405	7.273	3955.431	2445.962	3644.239	2330.216
952.425	6.772	3948.141	2428.856	3644.168	2330.853
953.445	6.521	3943.630	2412.020	3640.043	2329.205
954.465	6.618	3944.136	2411.181	3634.184	2323.779
955.485	6.871	3944.851	2419.501	3630.816	2320.978
956.505	7.000	3943.974	2421.621	3628.456	2319.171
957.525	7.024	3941.293	2418.454	3628.338	2318.703
958.545	7.155	3939.743	2419.271	3628.388	2319.586
959.565	7.347	3939.238	2420.676	3627.757	2318.414
960.585	7.537	3940.006	2423.559	3626.601	2317.345
961.605	7.743	3941.912	2429.446	3623.473	2315.981
962.625	7.922	3943.605	2433.418	3618.811	2312.321
963.645	8.090	3945.146	2435.974	3615.278	2308.901
964.665	8.286	3947.000	2440.679	3612.571	2306.435
965.685	8.512	3946.612	2445.266	3612.271	2304.911
966.705	8.629	3945.187	2446.059	3613.540	2305.623
967.725	8.721	3944.018	2446.390	3611.282	2304.776
968.745	8.786	3944.111	2448.277	3608.923	2303.262
969.765	8.807	3943.780	2449.072	3608.283	2302.032
970.785	8.840	3942.888	2449.177	3606.263	2301.407
971.805	8.846	3940.698	2447.654	3604.474	2299.978
972.825	8.918	3938.104	2446.040	3602.589	2299.593
973.845	8.996	3935.467	2445.000	3600.586	2297.942
974.865	9.096	3934.146	2445.433	3599.736	2296.763
975.885	9.213	3934.664	2447.118	3598.059	2294.454
976.905	9.364	3933.641	2449.087	3592.836	2287.220
977.925	9.473	3931.452	2449.586	3586.238	2272.845
978.945	9.579	3928.256	2449.449	3576.798	2249.887
979.965	9.654	3926.311	2448.405	3562.374	2210.059
980.985	9.714	3925.403	2448.862	3546.357	2152.188
982.005	9.760	3923.132	2448.755	3537.221	2116.399
983.025	9.745	3920.257	2447.266	3533.057	2110.298
984.045	9.625	3919.421	2445.446	3530.163	2107.453
985.065	9.571	3918.096	2443.948	3524.515	2104.717
986.085	9.530	3914.987	2440.581	3518.635	2099.234
987.105	9.480	3912.084	2436.741	3514.443	2096.066
988.125	9.442	3910.357	2435.073	3510.360	2093.158
989.145	9.446	3907.988	2434.221	3508.890	2091.882
990.165	9.411	3906.475	2433.095	3508.297	2090.827
991.185	9.331	3905.449	2431.816	3508.126	2091.182
992.205	9.260	3903.149	2428.240	3507.406	2091.663
993.224	9.301	3901.024	2424.631	3508.219	2091.167
994.244	9.471	3898.907	2424.180	3508.977	2092.101
995.264	9.691	3897.789	2426.580	3506.483	2091.602
996.284	9.598	3898.132	2430.827	3503.714	2089.956
997.304	9.139	3896.705	2433.414	3501.520	2088.362
998.324	8.370	3888.630	2417.393	3500.203	2086.237
999.344	7.654	3880.391	2391.306	3498.227	2085.427
1000.364	7.325	3876.586	2378.422	3495.145	2083.795
1001.384	7.280	3873.420	2375.957	3490.683	2080.673
1002.404	7.281	3871.642	2374.751	3488.726	2078.299
1003.424	7.263	3871.084	2374.121	3486.197	2076.592
1004.444	7.263	3868.834	2373.097	3484.223	2075.103
1005.464	7.269	3866.780	2371.135	3484.272	2075.178
1006.484	7.274	3865.889	2370.090	3484.775	2076.086
1007.504	7.292	3865.741	2370.093	3485.000	2076.701
1008.524	7.329	3864.918	2370.381	3482.527	2075.728
1009.544	7.348	3862.362	2369.117	3480.435	2073.873
1010.564	7.333	3859.726	2367.279	3481.457	2073.489
1011.584	7.323	3859.819	2366.860	3482.971	2076.429
1012.604	7.347	3859.134	2367.493	3484.219	2076.955
1013.624	7.353	3856.509	2365.359	3486.696	2079.516
1014.644	7.250	3853.902	2361.495	3487.251	2083.256
1015.664	7.172	3852.262	2361.421	3485.264	2083.428
1016.684	7.284	3839.427	2358.853	3480.648	2079.730
1017.704	7.239	3808.796	2338.736	3475.830	2077.301
1018.724	7.043	3783.481	2318.898	3472.837	2075.182
1019.744	7.024	3771.657	2310.746	3470.715	2074.292
1020.764	7.025	3763.744	2305.147	3467.907	2072.354
1021.784	7.006	3758.162	2301.443	3464.107	2069.809
1022.804	6.975	3753.882	2298.432	3461.553	2067.888
1023.824	6.951	3749.108	2295.414	3458.237	2065.487
1024.844	6.965	3743.147	2292.366	3454.955	2062.422
1025.864	6.944	3736.322	2287.306	3453.704	2061.966
1026.884	6.926	3732.491	2284.162	3453.053	2062.018
1027.904	6.963	3731.021	2283.299	3451.247	2060.473
1028.924	7.001	3729.171	2282.634	3448.442	2059.788
1029.944	7.025	3725.223	2280.998	3445.707	2058.198
1030.964	6.985	3720.739	2277.396	3443.432	2055.702
1031.984	6.999	3718.975	2275.705	3444.983	2066.128
1033.004	7.048	3717.623	2275.775	3447.444	2084.894
1034.024	7.054	3714.512	2273.991	3445.231	2092.224
1035.044	7.020	3709.995	2271.033	3441.878	2087.064
1036.064	6.979	3705.590	2267.765	3438.253	2081.018
1037.084	6.989	3702.741	2265.621	3435.765	2075.708
1038.104	6.987	3699.455	2264.076	3434.601	2074.538
1039.124	6.956	3694.338	2260.609	3433.446	2075.677
1040.144	6.923	3691.176	2257.231	3431.186	2075.220
1041.164	6.948	3690.983	2257.348	3430.185	2074.937
1042.184	6.974	3690.699	2257.464	3428.678	2074.787
1043.203	6.999	3690.791	2257.574	3425.793	2072.644
1044.223	7.085	3690.841	2258.351	3424.131	2071.376
1045.243	7.066	3688.329	2256.320	3423.612	2071.455
1046.263	7.122	3684.009	2254.552	3422.529	2073.263
1047.283	7.218	3679.938	2251.652	3421.540	2073.553
1048.303	8.120	3676.536	2250.556	3419.604	2072.316
1049.323	9.764	3680.946	2255.625	3415.336	2069.372
1050.343	12.057	3694.769	2295.322	3410.857	2064.653
1051.363	14.556	3710.372	2357.499	3407.845	2061.536
1052.383	16.084	3722.160	2397.871	3406.473	2059.506
1053.403	16.911	3727.957	2420.549	3404.793	2056.714
1054.423	17.291	3731.218	2432.011	3402.215	2053.086
1055.443	17.517	3730.657	2437.566	3400.037	2050.103
1056.463	17.578	3728.917	2437.770	3398.000	2047.537
1057.483	17.541	3727.672	2436.436	3396.033	2043.953
1058.503	17.547	3725.888	2435.431	3394.337	2042.690
1059.523	17.498	3725.044	2433.881	3393.000	2041.381
1060.543	17.512	3722.796	2432.328	3392.346	2041.309
1061.563	17.509	3718.856	2429.457	3390.542	2040.388
1062.583	17.461	3716.360	2426.873	3387.339	2036.958
1063.603	17.466	3713.209	2425.043	3383.873	2033.214
1064.623	17.462	3711.232	2422.508	3381.219	2029.667
1065.643	17.517	3711.417	2423.337	3378.496	2026.115
1066.663	17.595	3710.054	2423.639	3375.576	2021.099
1067.683	17.605	3706.702	2420.941	3373.061	2016.980
1068.703	17.582	3705.008	2419.500	3370.286	2014.151
1069.723	17.622	3702.792	2419.110	3367.883	2010.026
1070.743	17.647	3697.700	2415.836	3365.526	2004.485
1071.763	17.609	3694.830	2413.322	3363.144	2001.064
1072.783	17.613	3694.344	2413.035	3359.966	1997.247
1073.803	17.633	3693.266	2412.562	3356.267	1993.338
1074.823	17.633	3691.903	2411.095	3353.346	1992.187
1075.843	17.671	3691.075	2410.173	3349.366	1987.230
1076.863	17.673	3689.418	2409.539	3346.108	1978.759
1077.883	17.633	3687.060	2407.593	3345.517	1978.758
1078.903	17.644	3683.207	2405.065	3346.831	1990.672
1079.923	17.643	3678.012	2401.247	3348.346	2001.987
1080.943	17.605	3672.785	2397.418	3349.870	2009.643
1081.963	17.556	3670.160	2394.211	3350.142	2015.894
1082.983	17.578	3669.239	2392.832	3349.408	2018.145
1084.003	17.593	3670.188	2393.714	3349.037	2018.231
1085.023	17.643	3670.130	2395.019	3348.357	2017.424
1086.043	17.610	3666.727	2392.134	3346.837	2016.514
1087.063	17.555	3664.556	2390.026	3345.204	2016.774
1088.083	17.574	3663.985	2390.352	3343.309	2016.210
1089.103	17.622	3660.039	2388.779	3340.578	2013.900
1090.123	17.574	3656.154	2384.230	3338.677	2012.394
1091.143	17.554	3653.847	2382.224	3337.929	2012.062
1092.163	17.482	3654.127	2381.710	3337.053	2011.004
1093.183	17.500	3656.128	2383.244	3335.960	2009.853
1094.202	17.614	3654.741	2384.925	3335.076	2007.370
1095.222	17.594	3650.170	2381.088	3333.539	2006.164
1096.242	17.547	3646.578	2377.104	3332.752	2004.874
1097.262	17.534	3646.807	2376.628	3332.709	2003.720
1098.282	17.561	3647.550	2377.910	3330.950	2001.580
1099.302	17.582	3645.500	2377.036	3328.427	1997.635
1100.322	17.554	3642.816	2374.794	3325.803	1994.306
1101.342	17.620	3639.156	2373.376	3326.022	1993.934
1102.362	17.602	3633.914	2369.199	3326.534	1994.238
1103.382	17.498	3629.102	2363.861	3326.029	1994.890
1104.402	17.464	3625.859	2360.832	3325.438	1996.081
1105.422	17.473	3626.072	2360.518	3325.820	1998.638
1106.442	17.498	3625.479	2361.387	3324.792	1999.918
1107.462	17.549	3622.287	2360.295	3323.258	1999.513
1108.482	17.514	3619.919	2357.310	3321.442	1998.902
1109.502	17.472	3620.440	2356.864	3319.678	1998.241
1110.522	17.478	3619.381	2356.853	3318.714	1996.984
1111.542	17.486	3617.733	2355.530	3316.577	1995.852
1112.562	17.549	3614.474	2354.174	3314.055	1994.056
1113.582	17.522	3611.069	2351.390	3311.247	1990.823
1114.602	17.457	3609.205	2349.326	3308.682	1988.221
1115.622	17.457	3609.354	2348.301	3307.023	1986.437
1116.642	17.514	3610.662	2349.638	3304.203	1983.630
1117.662	17.532	3609.369	2349.548	3300.502	1978.256
1118.682	17.510	3605.945	2346.946	3297.316	1973.931
1119.702	17.493	3602.820	2344.594	3294.550	1970.929
1120.722	17.458	3600.800	2342.983	3291.950	1967.097
1121.742	17.436	3599.589	2341.722	3291.283	1965.610
1122.762	17.487	3595.693	2339.971	3291.561	1967.029
1123.782	17.446	3592.999	2337.506	3290.397	1968.180
1124.802	17.389	3591.205	2335.174	3289.392	1968.611
1125.822	17.391	3590.765	2334.615	3289.256	1968.245
1126.842	17.421	3590.711	2334.999	3289.095	1967.581
1127.862	17.401	3591.817	2334.863	3289.787	1968.964
1128.882	17.454	3592.203	2336.167	3289.287	1969.701
1129.902	17.522	3590.348	2336.421	3287.544	1968.176
1130.922	17.475	3586.426	2333.196	3283.633	1965.065
1131.942	17.398	3582.792	2329.876	3275.634	1953.208
1132.962	17.379	3581.477	2328.527	3268.398	1935.070
1133.982	17.414	3580.202	2327.592	3264.521	1925.709
1135.002	17.461	3578.589	2326.131	3261.256	1923.625
1136.022	17.459	3578.111	2325.608	3258.184	1920.890
1137.042	17.475	3575.716	2324.799	3256.681	1919.594
1138.062	17.469	3572.889	2322.294	3255.752	1918.548
1139.082	17.436	3571.295	2320.666	3254.101	1917.773
1140.102	17.460	3570.019	2320.249	3252.832	1916.815
1141.122	17.442	3569.687	2318.874	3253.870	1917.803
1142.142	17.446	3572.133	2321.352	3259.266	1936.669
1143.162	17.412	3571.916	2321.356	3262.640	1956.690
1144.181	17.435	3570.690	2320.804	3261.117	1957.768
1145.201	17.442	3570.319	2320.182	3257.610	1950.360
1146.221	17.528	3566.994	2319.124	3254.651	1945.840
1147.241	17.511	3564.971	2316.834	3252.757	1944.766
1148.261	17.471	3564.135	2315.965	3251.184	1943.546
1149.281	17.415	3564.091	2315.569	3249.501	1941.556
1150.301	17.467	3562.416	2315.110	3247.969	1940.499
1151.321	17.495	3558.646	2312.774	3246.807	1940.690
1152.341	17.447	3555.092	2309.677	3244.309	1939.244
1153.361	17.399	3552.453	2307.726	3241.118	1934.363
1154.381	17.387	3550.956	2305.964	3238.125	1929.127
1155.401	17.379	3549.469	2304.892	3236.163	1926.139
1156.421	17.387	3546.279	2303.304	3232.299	1924.422
1157.441	17.372	3543.403	2300.788	3229.959	1922.963
1158.461	17.344	3541.397	2298.464	3229.487	1923.033
1159.481	17.416	3538.311	2297.536	3229.300	1923.872
1160.501	17.421	3534.916	2295.305	3227.593	1925.573
1161.521	17.359	3531.063	2291.355	3225.846	1926.622
1162.541	17.353	3528.677	2288.717	3225.146	1929.834
1163.561	17.364	3530.738	2289.571	3224.072	1932.181
1164.581	17.362	3533.397	2291.560	3223.030	1932.489
1165.601	17.356	3535.633	2293.797	3222.208	1932.302
1166.621	17.410	3534.672	2295.033	3222.015	1932.949
1167.641	17.363	3529.475	2290.830	3222.317	1934.557
1168.661	17.318	3524.632	2286.307	3221.596	1936.588
1169.681	17.277	3524.327	2284.670	3219.575	1935.618
1170.701	17.309	3525.598	2286.128	3217.401	1933.161
1171.721	17.375	3522.815	2285.657	3215.838	1929.794
1172.741	17.390	3517.487	2281.952	3214.721	1928.211
1173.761	17.316	3513.949	2277.938	3213.191	1925.224
1174.781	17.294	3513.321	2276.809	3211.355	1922.663
1175.801	17.372	3511.304	2276.258	3209.587	1920.735
1176.821	17.350	3509.771	2274.207	3208.637	1919.489
1177.841	17.274	3510.390	2273.812	3208.035	1919.423
1178.861	17.225	3510.746	2275.085	3206.013	1919.598
1179.881	17.247	3507.968	2273.770	3204.241	1919.427
1180.901	17.271	3504.831	2270.828	3203.845	1919.701
1181.921	17.275	3503.177	2269.059	3203.373	1920.143
1182.941	17.262	3503.088	2269.237	3201.691	1918.913
1183.961	17.211	3503.697	2269.181	3201.585	1916.655
1184.981	17.236	3506.018	2270.608	3201.657	1915.923
1186.001	17.240	3506.280	2270.792	3201.080	1916.357
1187.021	17.258	3504.058	2270.386	3199.761	1914.335
1188.041	17.265	3498.806	2266.852	3196.712	1909.819
1189.061	17.258	3491.711	2261.641	3193.034	1905.689
1190.081	17.138	3488.981	2257.354	3190.763	1904.479
1191.101	17.104	3488.045	2256.472	3189.991	1904.208
1192.121	17.135	3486.539	2255.763	3189.170	1904.181
1193.141	17.145	3484.008	2253.281	3189.239	1904.263
1194.161	17.117	3481.545	2250.688	3189.433	1905.437
1195.180	17.072	3481.442	2250.930	3189.001	1905.798
1196.200	17.007	3477.888	2248.957	3187.877	1904.221
1197.220	16.911	3469.949	2242.405	3185.337	1902.203
1198.240	16.756	3466.331	2236.660	3182.482	1899.296
1199.260	16.712	3466.672	2236.672	3178.466	1895.008
1200.280	16.658	3464.848	2235.933	3175.767	1890.840
1201.300	16.541	3459.323	2231.003	3173.591	1888.532
1202.320	16.406	3452.508	2223.340	3171.678	1887.819
1203.340	16.316	3448.414	2216.891	3168.825	1886.763
1204.360	16.313	3448.963	2215.752	3165.685	1885.740
1205.380	16.414	3452.208	2219.975	3164.590	1884.891
1206.400	16.614	3453.032	2224.352	3164.624	1885.407
1207.420	16.781	3450.554	2225.208	3163.193	1885.058
1208.440	16.862	3446.617	2223.550	3161.818	1884.633
1209.460	16.936	3440.877	2220.757	3160.902	1883.812
1210.480	16.932	3437.516	2218.266	3158.732	1880.814
1211.500	16.931	3437.995	2218.864	3156.298	1877.482
1212.520	17.030	3438.467	2220.681	3156.391	1875.780
1213.540	17.101	3436.239	2220.751	3158.328	1879.409
1214.560	17.051	3434.535	2218.887	3158.533	1882.843
1215.580	17.073	3434.999	2219.241	3156.843	1882.691
1216.600	17.115	3435.877	2220.235	3154.079	1880.648
1217.620	17.187	3433.842	2220.508	3150.877	1878.851
1218.640	17.208	3430.820	2218.782	3148.756	1877.063
1219.660	17.214	3427.492	2215.806	3146.315	1875.668
1220.680	17.220	3425.484	2213.471	3145.374	1875.033
1221.700	17.238	3427.217	2214.979	3145.106	1874.362
1222.720	17.312	3426.673	2216.592	3144.738	1874.552
1223.740	17.325	3423.179	2213.621	3143.730	1874.494
1224.760	17.302	3420.631	2211.053	3142.216	1874.051
1225.780	17.306	3419.264	2210.305	3141.240	1873.787
1226.800	17.340	3419.573	2210.684	3141.657	1874.995
1227.820	17.402	3418.408	2210.963	3140.927	1875.694
1228.840	17.390	3414.895	2208.792	3139.516	1875.349
1229.860	17.371	3410.522	2205.728	3137.861	1873.375
1230.880	17.316	3408.097	2202.821	3137.638	1872.501
1231.900	17.294	3406.628	2201.833	3138.015	1872.768
1232.920	17.329	3405.300	2201.067	3136.990	1870.866
1233.940	17.352	3403.842	2200.307	3135.237	1868.040
1234.960	17.353	3401.344	2198.725	3134.563	1866.849
1235.980	17.330	3399.742	2196.777	3133.950	1866.036
1237.000	17.383	3398.583	2196.400	3132.258	1863.835
1238.020	17.429	3395.994	2195.016	3130.609	1862.274
1239.040	17.400	3391.650	2191.953	3129.144	1862.017
1240.060	17.310	3389.069	2189.255	3126.905	1860.140
1241.080	17.330	3386.808	2188.055	3125.939	1858.596
1242.100	17.362	3383.893	2186.308	3125.600	1857.533
1243.120	17.336	3381.400	2184.137	3123.729	1855.359
1244.140	17.314	3379.143	2181.722	3121.649	1853.114
1245.159	17.325	3378.192	2181.388	3119.554	1851.329
1246.179	17.389	3377.945	2181.729	3116.846	1848.141
1247.199	17.401	3378.895	2181.567	3110.969	1839.825
1248.219	17.451	3378.928	2182.687	3102.628	1819.107
1249.239	17.442	3376.923	2181.364	3098.400	1800.758
1250.259	17.416	3374.876	2179.045	3097.462	1798.030
1251.279	17.456	3372.821	2178.326	3098.404	1797.968
1252.299	17.413	3372.319	2177.177	3100.035	1798.323
1253.319	17.418	3371.281	2177.106	3100.963	1800.743
1254.339	17.413	3369.256	2175.981	3100.537	1800.438
1255.359	17.378	3368.558	2174.472	3099.303	1799.157
1256.379	17.388	3369.743	2175.284	3097.297	1797.575
1257.399	17.400	3370.491	2176.408	3094.217	1795.279
1258.419	17.410	3369.519	2176.074	3092.308	1794.274
1259.439	17.418	3367.303	2174.513	3095.778	1804.886
1260.459	17.418	3366.351	2173.263	3100.484	1822.468
1261.479	17.414	3366.489	2173.930	3101.975	1833.053
1262.499	17.382	3365.895	2173.962	3100.531	1836.496
1263.519	17.378	3364.366	2172.975	3099.028	1835.807
1264.539	17.455	3361.924	2171.488	3099.087	1837.019
1265.559	17.498	3358.918	2169.283	3098.970	1838.843
1266.579	17.432	3358.671	2167.808	3096.630	1838.542
1267.599	17.423	3359.260	2168.802	3093.270	1836.749
1268.619	17.488	3354.812	2167.220	3090.253	1833.887
1269.639	17.520	3347.381	2162.713	3087.642	1831.140
1270.659	17.421	3342.908	2156.911	3085.451	1828.485
1271.679	17.420	3342.329	2155.704	3084.942	1828.194
1272.699	17.430	3341.959	2155.774	3085.401	1829.508
1273.719	17.394	3343.270	2155.719	3085.424	1831.644
1274.739	17.458	3345.078	2158.449	3084.804	1832.785
1275.759	17.506	3343.727	2158.265	3083.536	1833.945
1276.779	17.482	3342.320	2156.283	3083.198	1833.166
1277.799	17.475	3342.722	2156.338	3083.452	1833.396
1278.819	17.487	3343.111	2156.509	3083.160	1833.757
1279.839	17.508	3343.346	2157.488	3081.159	1832.178
1280.859	17.537	3340.388	2156.408	3078.503	1829.769
1281.879	17.484	3336.695	2152.599	3076.555	1827.160
1282.899	17.474	3335.645	2151.540	3075.127	1826.724
1283.919	17.441	3335.398	2151.590	3072.970	1825.360
1284.939	17.466	3333.190	2150.793	3071.325	1822.286
1285.959	17.476	3330.256	2148.374	3071.647	1821.672
1286.979	17.453	3328.036	2146.245	3070.678	1821.861
1287.999	17.450	3328.456	2146.138	3068.069	1820.233
1289.019	17.455	3328.739	2146.804	3065.207	1818.603
1290.039	17.497	3327.788	2146.843	3063.307	1816.144
1291.059	17.515	3327.750	2146.522	3061.464	1813.587
1292.079	17.551	3326.323	2145.744	3059.668	1810.130
1293.099	17.554	3323.876	2143.693	3056.407	1806.136
1294.119	17.596	3321.180	2142.172	3052.796	1802.729
1295.139	17.667	3316.469	2140.006	3049.413	1799.247
1296.158	17.580	3313.319	2135.734	3047.240	1797.143
1297.178	17.587	3313.937	2136.302	3046.513	1797.789
1298.198	17.648	3314.302	2137.702	3045.029	1798.890
1299.218	17.654	3313.177	2137.223	3044.304	1798.917
1300.238	17.622	3309.625	2134.786	3044.971	1800.114
1301.258	17.529	3306.521	2131.582	3045.719	1801.149
1302.278	17.476	3306.493	2130.027	3044.561	1800.912
1303.298	17.508	3307.965	2131.114	3042.444	1797.927
1304.318	17.541	3307.847	2131.838	3042.003	1795.712
1305.338	17.581	3306.443	2131.307	3041.304	1794.163
1306.358	17.582	3304.975	2130.297	3039.927	1793.223
1307.378	17.644	3302.693	2130.235	3037.816	1792.325
1308.398	17.629	3298.525	2127.015	3034.451	1789.142
1309.418	17.606	3294.804	2123.825	3030.808	1783.817
1310.438	17.564	3291.715	2120.581	3027.550	1779.592
1311.458	17.582	3289.662	2119.364	3024.902	1778.193
1312.478	17.576	3288.460	2118.175	3023.189	1779.117
1313.498	17.556	3288.325	2117.414	3022.333	1781.271
1314.518	17.605	3288.789	2118.523	3023.253	1784.246
1315.538	17.578	3288.224	2117.445	3025.679	1788.159
1316.558	17.559	3287.350	2117.020	3026.888	1790.646
1317.578	17.541	3285.008	2115.888	3026.259	1792.189
1318.598	17.539	3282.328	2113.649	3025.192	1791.618
1319.618	17.571	3280.489	2112.838	3023.691	1791.601
1320.638	17.583	3277.913	2111.266	3022.678	1791.139
1321.658	17.572	3275.466	2108.944	3022.103	1790.233
1322.678	17.579	3272.335	2106.977	3020.296	1788.639
1323.698	17.563	3270.274	2104.616	3018.079	1786.314
1324.718	17.529	3272.045	2104.700	3016.353	1783.823
1325.738	17.595	3272.258	2106.129	3014.339	1781.073
1326.758	17.593	3270.288	2105.408	3012.577	1779.033
1327.778	17.591	3270.485	2105.217	3011.570	1779.369
1328.798	17.608	3271.940	2105.753	3011.426	1780.462
1329.818	17.652	3273.875	2107.656	3012.181	1782.685
1330.838	17.694	3273.720	2108.880	3012.546	1784.936
1331.858	17.679	3272.098	2107.543	3012.393	1786.612
1332.878	17.655	3269.092	2105.560	3010.922	1787.470
1333.898	17.649	3265.760	2103.003	3009.163	1787.017
1334.918	17.651	3262.724	2100.646	3009.863	1788.318
1335.938	17.615	3259.250	2097.612	3011.100	1790.064
1336.958	17.527	3259.123	2095.979	3011.350	1790.389
1337.978	17.570	3261.100	2098.113	3011.137	1790.048
1338.998	17.636	3260.201	2098.974	3010.997	1790.360
1340.018	17.576	3256.750	2095.963	3010.226	1789.602
1341.038	17.476	3254.256	2092.561	3009.015	1789.260
1342.058	17.434	3254.283	2091.614	3007.955	1788.924
1343.078	17.480	3254.384	2091.728	3007.661	1788.984
1344.098	17.510	3253.139	2091.041	3006.576	1788.298
1345.118	17.461	3252.392	2090.176	3005.282	1786.936
1346.137	17.463	3250.516	2089.114	3003.594	1785.629
1347.157	17.513	3247.455	2087.942	3001.855	1783.187
1348.177	17.540	3244.099	2085.433	2999.845	1780.825
1349.197	17.557	3242.372	2084.039	2997.184	1779.331
1350.217	17.505	3242.619	2083.945	2995.037	1777.391
1351.237	17.460	3241.138	2083.740	2993.918	1775.791
1352.257	17.247	3237.108	2080.514	2993.792	1775.341
1353.277	16.661	3232.950	2074.297	2993.281	1775.061
1354.297	15.650	3228.540	2065.482	2991.556	1773.869
1355.317	13.824	3222.141	2049.793	2989.126	1771.085
1356.337	11.579	3210.619	2023.203	2987.805	1769.543
1357.357	9.306	3193.904	1972.464	2987.928	1769.833
1358.377	7.653	3183.583	1927.641	2987.652	1772.154
1359.397	7.158	3183.289	1916.209	2982.384	1763.586
1360.417	7.112	3183.259	1915.083	2974.668	1743.190
1361.437	7.030	3180.743	1912.495	2971.065	1730.666
1362.457	6.976	3177.291	1909.720	2968.513	1728.667
1363.477	6.974	3174.527	1907.964	2966.589	1727.644
1364.497	6.965	3172.651	1906.070	2964.766	1725.985
1365.517	7.028	3170.671	1905.581	2962.679	1724.969
1366.537	7.060	3165.702	1903.059	2960.945	1722.958
1367.557	6.980	3161.286	1898.221	2959.142	1723.188
1368.577	6.975	3157.876	1896.175	2956.879	1721.745
1369.597	6.969	3155.840	1894.763	2954.593	1719.843
1370.617	6.997	3153.205	1893.527	2952.169	1717.154
1371.637	6.985	3151.417	1891.337	2948.504	1714.004
1372.657	7.002	3150.013	1890.629	2929.881	1708.021
1373.677	7.002	3149.016	1890.252	2900.142	1689.739
1374.697	6.994	3149.276	1890.557	2881.723	1676.457
1375.717	7.025	3149.097	1890.477	2873.677	1672.936
1376.737	7.057	3147.120	1889.223	2869.152	1669.295
1377.757	7.010	3145.456	1887.332	2865.422	1667.187
1378.777	6.992	3144.338	1887.109	2864.906	1666.041
1379.797	6.987	3141.903	1885.941	2865.574	1666.995
1380.817	6.942	3141.135	1884.219	2864.067	1667.502
1381.837	6.944	3143.008	1885.490	2858.857	1664.324
1382.857	6.997	3143.796	1887.025	2854.459	1661.206
1383.877	7.028	3141.550	1886.304	2853.396	1660.140
1384.897	7.010	3137.899	1883.318	2853.129	1660.532
1385.917	7.026	3133.674	1880.235	2851.054	1659.671
1386.937	7.019	3130.288	1878.230	2848.507	1657.549
1387.957	7.142	3127.277	1877.042	2846.481	1656.002
1388.977	7.255	3122.348	1875.484	2843.908	1655.165
1389.997	7.145	3111.260	1868.617	2841.359	1653.722
1391.017	7.087	3099.832	1862.216	2839.409	1652.124
1392.037	7.142	3093.289	1859.881	2836.558	1650.674
1393.057	7.135	3088.707	1855.645	2832.051	1648.331
1394.077	7.197	3084.978	1853.735	2828.282	1645.071
1395.097	7.186	3082.547	1852.864	2827.029	1643.805
1396.117	7.157	3081.534	1853.270	2826.689	1644.034
1397.136	7.196	3079.598	1851.690	2824.317	1642.955
1398.156	7.207	3076.415	1849.519	2822.764	1641.230
1399.176	7.150	3072.445	1847.288	2821.256	1640.464
1400.196	7.091	3068.517	1843.871	2819.345	1639.297
1401.216	7.086	3066.244	1841.646	2818.298	1638.259
1402.236	7.115	3065.607	1841.053	2816.570	1637.814
1403.256	7.155	3064.545	1840.983	2816.966	1637.305
1404.276	7.208	3060.933	1840.047	2818.163	1638.864
1405.296	7.182	3058.689	1837.267	2816.997	1640.160
1406.316	7.226	3057.300	1836.538	2816.449	1639.911
1407.336	7.730	3056.396	1836.737	2823.520	1655.014
1408.356	8.410	3058.213	1839.145	2836.573	1697.672
1409.376	9.114	3062.619	1854.711	2847.208	1739.046
1410.396	9.671	3064.719	1871.471	2854.024	1761.005
1411.416	9.572	3062.834	1871.881	2856.819	1772.384
1412.436	9.331	3059.702	1867.273	2856.352	1775.905
1413.456	9.208	3056.403	1861.753	2853.844	1775.518
1414.476	9.213	3054.502	1858.017	2851.821	1773.893
1415.496	9.295	3053.383	1858.122	2850.203	1772.307
1416.516	9.376	3051.822	1858.985	2848.548	1770.666
1417.536	9.422	3050.127	1858.271	2846.740	1768.736
1418.556	9.419	3048.955	1857.952	2846.582	1767.591
1419.576	9.425	3047.354	1857.004	2846.554	1767.435
1420.596	9.495	3045.402	1855.637	2845.964	1767.223
1421.616	9.590	3042.456	1854.812	2845.080	1766.087
1422.636	9.649	3039.137	1853.627	2844.465	1765.360
1423.656	9.688	3036.190	1852.729	2844.605	1764.589
1424.676	9.664	3033.435	1851.348	2844.527	1766.032
1425.696	9.641	3031.223	1849.575	2841.997	1764.124
1426.716	9.558	3029.299	1847.307	2837.900	1760.146
1427.736	9.455	3027.098	1845.344	2834.669	1757.330
1428.756	9.375	3025.505	1843.828	2832.812	1754.757
1429.776	9.279	3023.455	1841.833	2831.704	1753.651
1430.796	9.130	3020.228	1837.790	2830.104	1751.544
1431.816	9.031	3017.678	1834.306	2828.159	1749.630
1432.836	8.963	3014.902	1831.486	2826.858	1747.203
1433.856	8.870	3011.161	1827.688	2825.603	1744.379
1434.876	8.781	3008.679	1824.053	2822.214	1739.954
1435.896	8.759	3007.776	1822.715	2819.235	1734.644
1436.916	8.760	3007.441	1823.004	2818.552	1731.401
1437.936	8.714	3007.131	1822.926	2818.139	1731.076
1438.956	8.686	3005.829	1822.146	2815.772	1730.111
1439.976	8.591	3003.117	1818.963	2813.511	1727.258
1440.996	8.399	2999.640	1815.383	2811.821	1725.144
1442.016	8.206	2996.716	1811.941	2807.880	1722.918
1443.036	8.043	2993.644	1807.425	2804.334	1719.314
1444.056	7.879	2990.633	1802.990	2804.413	1718.986
1445.076	7.667	2988.508	1799.599	2804.304	1721.173
1446.096	7.479	2986.280	1796.907	2803.192	1722.915
1447.115	7.277	2984.065	1792.430	2800.818	1721.910
1448.135	7.101	2983.848	1789.164	2799.497	1721.474
1449.155	7.038	2983.209	1787.529	2800.805	1722.456
1450.175	6.950	2981.966	1785.018	2802.210	1725.090
1451.195	6.803	2981.455	1784.461	2801.494	1726.134
1452.215	6.591	2979.763	1783.445	2800.265	1725.985
1453.235	6.550	2975.848	1777.310	2797.886	1725.475
1454.255	6.751	2974.228	1771.290	2794.377	1723.403
1455.275	7.368	2976.082	1777.779	2792.241	1721.267
1456.295	8.096	2979.076	1789.902	2790.890	1721.696
1457.315	8.667	2981.395	1799.512	2789.320	1720.554
1458.335	9.018	2983.483	1806.587	2788.374	1719.361
1459.355	9.208	2985.118	1812.021	2787.793	1719.532
1460.375	9.275	2985.148	1813.989	2787.354	1718.792
1461.395	9.292	2983.814	1813.349	2787.327	1718.913
1462.415	9.294	2982.195	1811.000	2783.085	1717.543
1463.435	9.342	2981.193	1810.754	2778.454	1712.957
1464.455	9.374	2979.367	1810.740	2776.906	1710.739
1465.475	9.374	2976.185	1809.110	2774.934	1709.791
1466.495	9.365	2973.436	1806.939	2771.710	1706.871
1467.515	9.359	2971.742	1805.093	2769.982	1704.507
1468.535	9.327	2971.515	1804.698	2769.551	1703.111
1469.555	9.259	2971.127	1804.445	2770.487	1702.949
1470.575	9.171	2970.082	1802.678	2771.850	1704.403
1471.595	9.089	2968.908	1800.356	2771.876	1705.251
1472.615	9.048	2968.338	1799.536	2771.777	1705.511
1473.635	8.986	2968.295	1799.140	2771.221	1705.920
1474.655	8.870	2966.828	1796.930	2769.061	1705.390
1475.675	8.743	2964.955	1794.137	2767.116	1704.312
1476.695	8.682	2962.997	1791.956	2765.333	1703.972
1477.715	8.616	2960.376	1789.487	2764.314	1702.754
1478.735	8.625	2957.983	1787.437	2763.731	1702.527
1479.755	8.751	2956.331	1786.096	2763.265	1703.104
1480.775	8.871	2954.425	1786.007	2762.650	1703.137
1481.795	8.990	2952.580	1786.944	2759.343	1701.947
1482.815	9.116	2950.813	1788.070	2756.398	1698.532
1483.835	9.140	2948.580	1786.974	2754.322	1697.139
1484.855	9.194	2947.451	1786.715	2751.094	1695.949
1485.875	9.196	2946.129	1786.162	2749.006	1693.852
1486.895	9.238	2944.403	1785.630	2748.699	1692.836
1487.915	9.220	2943.581	1784.737	2749.701	1693.633
1488.935	9.145	2942.517	1783.505	2750.656	1695.304
1489.955	9.115	2940.972	1782.366	2749.794	1694.850
1490.975	9.096	2939.118	1780.746	2748.942	1693.282
1491.995	9.039	2937.364	1779.095	2748.610	1693.579
1493.015	8.898	2935.335	1777.465	2747.357	1693.493
1494.035	8.705	2932.028	1773.224	2746.546	1691.904
1495.055	8.562	2928.014	1768.615	2747.518	1692.608
1496.075	8.412	2925.338	1764.675	2748.011	1694.052
1497.095	8.329	2923.400	1761.830	2746.310	1693.007
1498.114	8.334	2921.119	1759.254	2744.452	1691.659
1499.134	8.405	2918.568	1757.847	2742.439	1690.270
1500.154	8.519	2916.317	1758.234	2739.436	1688.372
1501.174	8.519	2914.935	1758.068	2736.820	1686.150
1502.194	8.495	2914.510	1757.593	2734.477	1684.312
1503.214	8.524	2914.280	1757.257	2731.586	1681.995
1504.234	8.540	2915.100	1757.692	2730.827	1680.734
1505.254	8.533	2915.984	1759.119	2730.158	1680.793
1506.274	8.455	2915.440	1758.191	2729.203	1680.179
1507.294	8.107	2914.234	1757.181	2729.261	1680.179
1508.314	7.593	2910.933	1753.818	2728.580	1679.681
1509.334	6.989	2904.545	1740.300	2727.718	1678.972
1510.354	6.441	2899.485	1725.503	2726.179	1677.673
1511.374	6.332	2897.133	1721.818	2724.107	1675.898
1512.394	6.349	2894.994	1720.576	2721.839	1674.778
1513.414	6.325	2893.402	1719.159	2718.521	1672.927
1514.434	6.276	2890.805	1717.298	2714.605	1669.724
1515.454	6.252	2890.283	1716.294	2713.029	1667.935
1516.474	6.475	2889.488	1716.109	2713.032	1668.158
1517.494	7.084	2886.932	1714.277	2712.786	1668.133
1518.514	7.865	2888.625	1720.040	2712.491	1668.123
1519.534	8.603	2894.869	1739.653	2710.220	1667.940
1520.554	8.980	2897.365	1753.458	2707.293	1665.440
1521.574	8.823	2894.879	1750.080	2707.505	1664.812
1522.594	8.607	2892.578	1743.706	2707.634	1665.361
1523.614	8.523	2891.696	1741.647	2705.791	1664.414
1524.634	8.519	2890.586	1741.407	2701.942	1661.832
1525.654	8.557	2888.430	1740.366	2698.869	1658.602
1526.674	8.522	2886.812	1738.307	2697.175	1657.400
1527.694	8.531	2885.119	1738.336	2696.010	1656.741
1528.714	8.463	2882.013	1736.835	2693.824	1655.380
1529.734	8.301	2878.496	1733.147	2691.664	1653.140
1530.754	8.137	2875.801	1728.655	2692.267	1652.782
1531.774	8.018	2873.483	1724.116	2692.194	1653.906
1532.794	8.027	2871.909	1722.143	2690.612	1653.123
1533.814	8.092	2869.755	1721.416	2690.341	1651.767
1534.834	8.174	2868.504	1721.346	2692.339	1652.553
1535.854	8.281	2869.056	1722.263	2694.041	1654.257
1536.874	8.464	2870.101	1724.047	2694.170	1655.632
1537.894	8.763	2870.324	1727.298	2693.894	1655.387
1538.914	9.016	2869.207	1729.432	2692.215	1654.711
1539.934	9.210	2867.608	1731.982	2690.111	1653.489
1540.954	9.311	2864.915	1732.008	2688.965	1652.481
1541.974	9.386	2862.120	1730.316	2688.307	1651.812
1542.994	9.460	2860.599	1729.363	2687.452	1651.446
1544.014	9.578	2859.402	1730.318	2684.812	1649.853
1545.034	9.654	2858.552	1731.165	2682.670	1648.029
1546.054	9.621	2856.952	1731.181	2681.212	1646.041
1547.074	9.555	2854.187	1729.229	2679.044	1645.000
1548.093	9.499	2851.562	1726.433	2676.244	1642.873
1549.113	9.368	2848.327	1723.044	2674.214	1640.884
1550.133	9.237	2845.177	1719.495	2673.343	1639.665
1551.153	9.125	2843.195	1715.912	2674.738	1640.616
1552.173	9.086	2841.688	1714.543	2674.714	1641.968
1553.193	9.075	2840.612	1713.369	2673.322	1640.707
1554.213	9.060	2839.666	1711.911	2672.047	1639.262
1555.233	9.151	2838.674	1712.503	2670.724	1638.579
1556.253	9.265	2837.674	1712.561	2670.042	1637.645
1557.273	9.365	2836.813	1713.132	2668.216	1636.122
1558.293	9.380	2835.228	1712.756	2666.109	1634.341
1559.313	9.316	2833.506	1712.167	2664.432	1632.366
1560.333	9.223	2830.963	1709.683	2662.907	1631.635
1561.353	9.142	2828.987	1706.715	2662.296	1630.770
1562.373	9.055	2828.688	1706.212	2660.849	1630.256
1563.393	8.965	2827.979	1705.540	2657.288	1628.419
1564.413	8.892	2826.306	1703.356	2652.184	1624.894
1565.433	8.790	2825.050	1699.939	2650.211	1622.097
1566.453	8.775	2824.555	1698.901	2651.653	1623.108
1567.473	8.815	2824.830	1699.482	2652.911	1624.898
1568.493	8.869	2825.093	1700.477	2652.626	1625.719
1569.513	8.906	2824.935	1700.534	2650.891	1625.335
1570.533	8.923	2825.497	1700.865	2648.822	1623.429
1571.553	8.971	2825.771	1702.412	2646.499	1621.986
1572.573	8.891	2825.046	1701.227	2644.736	1621.154
1573.593	8.802	2824.406	1700.200	2645.297	1620.714
1574.613	8.712	2823.642	1699.225	2647.658	1622.434
1575.633	8.575	2821.053	1696.797	2648.696	1624.197
1576.653	8.472	2817.963	1692.707	2646.617	1624.094
1577.673	8.456	2816.923	1689.926	2645.357	1621.710
1578.693	8.490	2816.355	1689.652	2646.208	1622.490
1579.713	8.589	2814.873	1690.147	2646.082	1623.469
1580.733	8.638	2813.224	1689.435	2644.471	1622.621
1581.753	8.678	2811.699	1689.542	2642.094	1620.944
1582.773	8.726	2809.393	1688.464	2639.262	1618.737
1583.793	8.715	2808.903	1687.664	2636.971	1617.187
1584.813	8.697	2808.514	1688.100	2636.616	1617.054
1585.833	8.650	2806.791	1687.703	2636.906	1616.491
1586.853	8.535	2803.421	1684.585	2637.052	1617.124
1587.873	8.446	2800.125	1680.481	2636.360	1616.593
1588.893	8.450	2798.313	1677.803	2635.675	1616.185
1589.913	8.494	2798.554	1677.664	2635.074	1615.751
1590.933	8.655	2799.190	1680.599	2634.085	1614.686
1591.953	8.751	2797.910	1681.456	2631.792	1613.575
1592.973	8.769	2794.949	1679.930	2628.839	1611.841
1593.993	8.819	2792.169	1678.772	2626.840	1610.000
1595.013	8.812	2789.342	1676.478	2625.496	1609.132
1596.033	8.799	2787.060	1674.876	2624.294	1608.197
1597.053	8.799	2786.117	1674.401	2623.144	1607.600
1598.072	8.830	2784.233	1673.592	2621.154	1606.138
1599.092	8.874	2781.554	1671.898	2618.479	1603.804
1600.112	8.887	2779.715	1670.403	2616.848	1602.418
1601.132	8.956	2778.699	1670.461	2616.238	1601.972
1602.152	9.035	2777.388	1670.336	2615.623	1601.818
1603.172	9.100	2776.343	1670.366	2614.303	1600.547
1604.192	9.130	2775.875	1670.399	2613.751	1599.948
1605.212	9.180	2775.108	1671.293	2613.889	1599.786
1606.232	9.165	2774.212	1670.342	2612.496	1599.218
1607.252	9.058	2774.211	1669.011	2610.270	1597.877
1608.272	8.975	2773.843	1668.929	2608.587	1596.101
1609.292	8.901	2772.583	1667.590	2607.150	1594.539
1610.312	8.774	2771.122	1664.509	2604.951	1593.174
1611.332	8.673	2769.445	1661.988	2603.410	1591.928
1612.352	8.635	2767.222	1660.285	2602.367	1591.728
1613.372	8.575	2766.259	1658.354	2601.070	1591.084
1614.392	8.585	2766.217	1658.049	2599.687	1589.605
1615.412	8.592	2765.725	1657.833	2598.899	1589.322
1616.432	8.558	2764.055	1657.025	2598.951	1589.031
1617.452	8.496	2763.227	1656.175	2599.515	1590.089
1618.472	8.413	2762.723	1654.802	2600.519	1591.027
1619.492	8.343	2761.992	1653.154	2600.860	1591.280
1620.512	8.283	2761.097	1652.071	2599.776	1590.416
1621.532	8.192	2760.246	1651.029	2597.839	1589.919
1622.552	7.838	2758.084	1648.813	2595.777	1588.247
1623.572	7.159	2754.580	1645.173	2593.635	1586.105
1624.592	6.223	2748.388	1632.646	2592.236	1584.439
1625.612	5.396	2741.752	1613.811	2591.834	1583.937
1626.632	4.994	2737.344	1602.117	2590.051	1583.678
1627.652	4.880	2736.005	1599.264	2587.482	1581.388
1628.672	4.900	2737.285	1600.010	2586.795	1580.252
1629.692	4.929	2738.885	1601.345	2587.088	1580.961
1630.712	4.927	2739.078	1601.910	2587.266	1580.857
1631.732	4.935	2738.443	1601.561	2587.147	1581.235
1632.752	4.857	2736.485	1599.566	2585.494	1580.842
1633.772	4.953	2733.937	1598.783	2582.610	1578.783
1634.792	5.350	2732.262	1596.399	2581.328	1577.158
1635.812	6.017	2733.483	1598.636	2580.713	1576.269
1636.832	6.911	2738.607	1612.973	2580.339	1576.316
1637.852	7.716	2742.263	1628.362	2580.194	1576.232
1638.872	8.101	2742.615	1635.503	2578.956	1575.693
1639.892	8.288	2741.040	1637.566	2575.989	1573.894
1640.912	8.354	2739.140	1636.164	2573.875	1571.138
1641.932	8.434	2737.343	1635.542	2573.086	1569.865
1642.952	8.502	2734.817	1635.363	2573.082	1569.944
1643.972	8.515	2733.540	1634.676	2573.204	1570.257
1644.992	8.483	2733.392	1634.704	2572.025	1569.841
1646.012	8.478	2732.228	1634.297	2569.637	1566.954
1647.032	8.465	2730.105	1631.891	2568.610	1564.868
1648.052	8.484	2729.061	1630.351	2567.639	1564.037
1649.071	8.654	2727.168	1630.985	2565.794	1562.197
1650.091	8.742	2725.083	1629.880	2565.059	1560.583
1651.111	8.860	2724.016	1630.531	2566.071	1561.476
1652.131	8.944	2723.687	1631.931	2565.072	1562.174
1653.151	9.008	2723.130	1632.732	2561.327	1560.086
1654.171	8.996	2722.316	1632.690	2557.487	1556.925
1655.191	8.916	2721.120	1631.420	2556.750	1555.846
1656.211	8.892	2719.390	1630.419	2558.163	1556.891
1657.231	8.905	2716.660	1628.641	2560.291	1559.333
1658.251	8.847	2713.677	1625.370	2560.101	1560.769
1659.271	8.759	2711.698	1623.183	2558.882	1559.941
1660.291	8.743	2710.680	1622.916	2557.609	1558.610
1661.311	8.712	2709.506	1621.748	2555.653	1557.401
1662.331	8.658	2708.481	1619.649	2554.252	1556.159
1663.351	8.642	2707.654	1618.643	2553.877	1555.940
1664.371	8.665	2706.377	1618.294	2554.018	1555.923
1665.391	8.651	2703.914	1617.245	2554.708	1555.712
1666.411	8.560	2701.971	1615.693	2553.729	1555.723
1667.431	8.408	2700.206	1613.825	2551.402	1553.734
1668.451	8.230	2698.613	1610.625	2550.383	1552.059
1669.471	8.110	2696.942	1607.272	2549.666	1550.707
1670.491	8.010	2695.114	1604.827	2546.835	1548.836
1671.511	7.981	2693.506	1603.300	2544.460	1545.541
1672.531	7.986	2692.221	1601.228	2544.012	1543.736
1673.551	8.048	2692.992	1601.460	2544.469	1543.948
1674.571	8.203	2693.756	1603.808	2543.923	1543.484
1675.591	8.296	2693.420	1604.910	2543.346	1541.534
1676.611	8.334	2692.243	1604.910	2540.901	1539.851
1677.631	8.381	2691.701	1605.157	2537.203	1534.978
1678.651	8.332	2690.881	1604.545	2535.066	1531.593
1679.671	8.181	2690.783	1603.466	2535.474	1532.049
1680.691	8.096	2690.653	1602.794	2535.470	1532.918
1681.711	8.042	2689.648	1600.734	2534.729	1533.498
1682.731	7.960	2688.429	1598.361	2533.011	1533.614
1683.751	7.878	2686.968	1597.461	2529.450	1530.784
1684.771	7.807	2685.186	1596.827	2527.264	1529.540
1685.791	7.656	2681.942	1593.216	2527.226	1530.415
1686.811	7.544	2678.071	1587.901	2528.622	1533.671
1687.831	7.582	2675.586	1584.358	2530.301	1537.266
1688.851	7.742	2675.636	1585.119	2529.587	1539.422
1689.871	7.994	2677.080	1588.772	2529.076	1539.969
1690.891	8.231	2678.345	1592.749	2529.038	1540.647
1691.911	8.408	2678.406	1595.105	2526.991	1540.335
1692.931	8.544	2677.780	1596.089	2526.708	1539.972
1693.951	8.673	2677.108	1597.267	2528.460	1541.804
1694.971	8.707	2676.979	1597.445	2527.390	1543.179
1695.991	8.763	2677.423	1598.293	2524.773	1541.256
1697.011	8.811	2677.709	1599.340	2522.693	1539.269
1698.031	8.785	2676.595	1599.327	2521.869	1539.381
1699.050	8.737	2674.245	1597.659	2521.902	1539.381
1700.070	8.694	2671.122	1595.371	2521.360	1539.595
1701.090	8.579	2667.549	1591.974	2520.313	1539.132
1702.110	8.478	2664.904	1588.657	2519.496	1538.783
1703.130	8.455	2663.040	1586.206	2518.577	1538.434
1704.150	8.518	2660.891	1584.363	2517.878	1538.200
1705.170	8.658	2659.590	1584.414	2515.858	1537.715
1706.190	8.824	2659.312	1585.870	2513.797	1535.979
1707.210	8.996	2659.202	1587.590	2512.228	1535.569
1708.230	9.159	2658.130	1588.754	2511.615	1534.554
1709.250	9.253	2657.411	1589.133	2510.703	1532.583
1710.270	9.348	2656.510	1589.809	2507.013	1528.166
1711.290	9.446	2655.782	1590.796	2500.237	1516.622
1712.310	9.508	2654.954	1591.458	2489.650	1495.654
1713.330	9.493	2653.870	1590.641	2475.767	1456.052
1714.350	9.458	2652.323	1589.137	2465.807	1420.150
1715.370	9.471	2650.648	1588.268	2462.886	1407.975
1716.390	9.470	2649.180	1587.139	2462.726	1405.626
1717.410	9.485	2646.867	1585.943	2460.785	1404.844
1718.430	9.510	2644.121	1584.342	2458.717	1403.112
1719.450	9.533	2642.591	1583.519	2456.872	1401.726
1720.470	9.490	2642.235	1583.076	2455.017	1400.522
1721.490	9.435	2642.155	1582.801	2454.705	1399.547
1722.510	9.382	2641.820	1582.479	2454.131	1399.449
1723.530	9.321	2640.961	1580.843	2453.620	1399.464
1724.550	9.307	2639.553	1578.928	2453.275	1399.170
1725.570	9.288	2639.357	1578.302	2452.807	1398.944
1726.590	9.276	2639.770	1578.593	2452.588	1398.822
1727.610	9.279	2639.021	1578.502	2452.090	1398.501
1728.630	9.217	2637.843	1577.170	2450.256	1398.077
1729.650	9.130	2637.278	1575.757	2447.734	1395.959
1730.670	9.129	2635.486	1574.798	2447.981	1395.784
1731.690	9.085	2633.306	1572.544	2446.658	1396.084
1732.710	9.079	2632.105	1570.774	2443.516	1394.168
1733.730	9.106	2631.643	1570.326	2441.522	1391.997
1734.750	8.801	2631.160	1571.257	2440.469	1391.380
1735.770	8.266	2629.130	1571.596	2439.216	1390.370
1736.790	7.459	2624.078	1559.093	2438.498	1389.596
1737.810	6.691	2619.492	1541.356	2438.597	1389.977
1738.830	6.459	2618.232	1535.482	2438.936	1390.525
1739.850	6.545	2617.717	1536.676	2438.270	1390.363
1740.870	6.525	2617.196	1535.861	2436.521	1389.437
1741.890	6.481	2616.815	1534.816	2435.606	1388.173
1742.910	6.556	2615.729	1534.271	2434.709	1388.199
1743.930	6.560	2614.859	1533.588	2432.966	1386.741
1744.950	6.597	2614.119	1534.281	2431.904	1385.855
1745.970	6.517	2613.406	1533.479	2430.915	1386.137
1746.990	6.448	2612.222	1532.078	2428.539	1383.961
1748.010	6.376	2610.462	1529.983	2426.159	1382.251
1749.030	6.322	2608.752	1528.377	2426.226	1381.729
1750.049	6.323	2604.620	1525.984	2425.678	1381.334
1751.069	6.277	2598.291	1522.125	2421.772	1378.258
1752.089	6.276	2593.721	1519.134	2415.576	1374.640
1753.109	6.265	2590.905	1516.646	2410.140	1372.357
1754.129	6.296	2589.184	1516.211	2406.198	1369.567
1755.149	6.345	2587.734	1515.846	2402.667	1367.816
1756.169	6.275	2586.555	1514.375	2399.687	1366.344
1757.189	6.263	2585.349	1513.817	2397.217	1364.700
1758.209	6.347	2583.475	1513.555	2394.643	1363.042
1759.229	6.343	2582.242	1511.992	2391.706	1361.381
1760.249	6.393	2580.551	1511.853	2389.972	1359.945
1761.269	6.448	2577.227	1511.055	2389.758	1360.367
1762.289	6.413	2575.064	1508.698	2389.335	1361.001
1763.309	6.414	2573.179	1506.751	2387.777	1360.589
1764.329	6.492	2571.019	1505.821	2385.866	1358.741
1765.349	6.977	2569.831	1505.668	2383.661	1357.412
1766.369	7.623	2570.862	1506.691	2381.125	1356.360
1767.389	8.430	2573.834	1520.391	2381.267	1356.774
1768.409	9.108	2574.927	1534.647	2383.903	1367.818
1769.429	9.158	2573.370	1534.862	2384.638	1381.054
1770.449	9.092	2571.241	1531.463	2382.836	1381.512
1771.469	9.076	2570.225	1530.344	2381.134	1378.847
1772.489	9.122	2570.022	1530.622	2380.290	1377.569
1773.509	9.210	2568.683	1530.436	2379.733	1377.907
1774.529	9.239	2567.834	1530.088	2378.475	1377.686
1775.549	9.290	2567.235	1530.681	2376.829	1376.909
1776.569	9.313	2566.506	1530.655	2375.863	1376.915
1777.589	9.301	2565.392	1529.184	2374.342	1376.426
1778.609	9.361	2564.139	1529.122	2372.462	1375.275
1779.629	9.348	2563.543	1528.689	2371.168	1374.386
1780.649	9.439	2563.273	1529.075	2370.231	1374.592
1781.669	9.523	2563.233	1529.648	2369.571	1374.470
1782.689	9.547	2563.016	1530.449	2368.485	1374.150
1783.709	9.557	2562.211	1530.346	2367.002	1373.671
1784.729	9.555	2561.353	1529.760	2365.550	1373.196
1785.749	9.543	2560.121	1528.374	2364.431	1372.271
1786.769	9.545	2558.645	1527.369	2363.989	1371.548
1787.789	9.530	2557.653	1526.543	2362.857	1370.732
1788.809	9.504	2556.791	1525.423	2360.990	1369.793
1789.829	9.459	2556.088	1524.560	2359.679	1368.431
1790.849	9.423	2556.219	1524.852	2358.792	1367.130
1791.869	9.405	2555.298	1524.933	2357.816	1367.534
1792.889	9.295	2553.019	1522.022	2356.189	1367.318
1793.909	9.142	2551.427	1519.407	2353.881	1364.921
1794.929	8.999	2550.412	1517.973	2352.147	1361.983
1795.949	8.911	2548.877	1516.065	2350.533	1359.843
1796.969	8.777	2547.378	1513.538	2348.499	1358.029
1797.989	8.631	2546.227	1511.273	2346.525	1355.254
1799.009	8.469	2545.740	1509.045	2345.082	1352.468
1800.028	8.436	2545.337	1507.811	2343.425	1350.834
1801.048	8.500	2545.146	1507.373	2341.071	1348.562
1802.068	8.606	2543.867	1507.556	2339.153	1346.593
1803.088	8.751	2541.925	1508.016	2338.172	1345.694
1804.108	8.805	2540.514	1507.246	2338.198	1346.961
1805.128	8.819	2539.489	1507.245	2337.721	1347.992
1806.148	8.808	2538.716	1507.246	2337.044	1348.030
1807.168	8.791	2537.923	1506.395	2335.556	1347.586
1808.188	8.718	2537.011	1505.039	2333.555	1346.653
1809.208	8.660	2536.336	1504.788	2332.418	1344.869
1810.228	8.577	2534.922	1503.230	2331.378	1344.064
1811.248	8.441	2532.955	1500.910	2329.110	1342.378
1812.268	8.231	2530.264	1497.763	2326.443	1339.337
1813.288	8.002	2527.828	1494.313	2324.720	1336.851
1814.308	7.779	2525.371	1490.331	2322.676	1334.349
1815.328	7.627	2522.630	1485.829	2320.015	1330.540
1816.348	7.595	2520.341	1482.693	2316.950	1325.867
1817.368	7.721	2518.608	1482.068	2314.638	1322.852
1818.388	7.873	2517.728	1483.251	2313.419	1321.742
1819.408	7.950	2517.277	1484.533	2311.982	1322.552
1820.428	8.011	2516.989	1484.983	2310.578	1323.233
1821.448	8.080	2515.434	1484.359	2308.899	1323.059
1822.468	8.197	2513.295	1484.099	2307.732	1322.831
1823.488	8.306	2511.678	1483.690	2307.549	1322.489
1824.508	8.393	2510.407	1483.770	2306.818	1323.371
1825.528	8.419	2509.452	1483.970	2305.327	1324.083
1826.548	8.409	2507.710	1483.764	2303.868	1323.571
1827.568	8.329	2506.112	1482.630	2302.954	1323.389
1828.588	8.163	2504.606	1479.734	2301.960	1322.232
1829.608	8.051	2503.346	1477.305	2300.621	1320.491
1830.628	7.999	2502.474	1475.572	2299.273	1318.555
1831.648	8.013	2501.707	1475.175	2298.234	1316.792
1832.668	8.064	2500.418	1474.572	2297.736	1316.392
1833.688	8.209	2499.698	1474.277	2297.182	1316.539
1834.708	8.381	2500.118	1475.764	2297.446	1316.709
1835.728	8.520	2499.936	1478.024	2298.334	1317.837
1836.748	8.618	2497.775	1478.521	2298.185	1320.074
1837.768	8.630	2495.839	1477.231	2297.636	1321.463
1838.788	8.623	2495.999	1476.813	2297.184	1321.708
1839.808	8.612	2497.117	1477.384	2296.937	1321.824
1840.828	8.599	2497.562	1477.657	2295.762	1320.677
1841.848	8.667	2497.390	1477.242	2294.495	1320.093
1842.868	8.791	2497.308	1478.096	2292.906	1318.774
1843.888	8.845	2496.879	1479.403	2292.250	1318.369
1844.908	8.863	2496.140	1479.176	2292.051	1319.753
1845.928	8.891	2495.241	1478.368	2291.175	1319.574
1846.948	8.978	2493.505	1478.422	2290.480	1318.725
1847.968	9.021	2491.921	1477.644	2290.267	1319.386
1848.988	8.991	2491.942	1477.100	2290.412	1320.120
1850.008	8.990	2491.970	1477.664	2289.662	1320.640
1851.027	8.928	2491.047	1476.833	2288.007	1319.349
1852.047	8.814	2489.661	1475.465	2286.232	1317.581
1853.067	8.679	2487.277	1472.351	2285.079	1315.896
1854.087	8.549	2484.708	1468.975	2283.732	1314.032
1855.107	8.443	2483.163	1466.877	2282.123	1311.546
1856.127	8.416	2481.713	1465.280	2280.692	1309.749
1857.147	8.466	2479.950	1464.029	2279.174	1308.336
1858.167	8.485	2479.142	1463.343	2278.074	1307.217
1859.187	8.553	2479.057	1464.729	2277.094	1307.052
1860.207	8.491	2478.248	1463.938	2275.881	1306.887
1861.227	8.440	2475.815	1462.221	2274.983	1306.820
1862.247	8.344	2473.697	1459.155	2274.341	1306.090
1863.267	8.223	2472.492	1457.739	2273.454	1304.225
1864.287	8.006	2471.253	1457.074	2272.568	1302.762
1865.307	7.457	2468.745	1453.614	2271.503	1301.962
1866.327	6.664	2464.217	1446.934	2268.885	1299.395
1867.347	5.856	2458.222	1434.074	2264.656	1293.243
1868.367	5.146	2452.969	1418.816	2260.488	1281.930
1869.387	4.955	2449.480	1413.450	2257.847	1270.297
1870.407	4.907	2447.076	1410.767	2255.885	1265.373
1871.427	4.912	2446.410	1409.384	2253.883	1263.774
1872.447	4.946	2447.495	1410.112	2252.265	1261.474
1873.467	5.023	2447.736	1411.129	2251.798	1261.279
1874.487	5.080	2447.101	1411.632	2250.980	1261.994
1875.507	5.068	2446.407	1411.216	2249.366	1261.861
1876.527	5.088	2444.357	1409.907	2248.307	1260.865
1877.547	5.048	2442.237	1408.160	2247.981	1260.556
1878.567	5.065	2440.491	1407.716	2247.706	1259.932
1879.587	5.067	2437.715	1406.035	2247.202	1260.065
1880.607	5.013	2435.195	1403.618	2246.403	1259.238
1881.627	4.975	2433.657	1402.364	2245.134	1258.131
1882.647	4.982	2432.850	1401.719	2243.886	1257.706
1883.667	4.985	2432.456	1400.963	2243.043	1256.722
1884.687	4.981	2433.064	1401.162	2241.650	1256.101
1885.707	5.065	2433.293	1402.938	2240.453	1255.707
1886.727	5.143	2431.703	1402.227	2238.721	1255.390
1887.747	5.621	2429.863	1400.596	2236.537	1253.318
1888.767	6.477	2430.566	1402.145	2235.584	1252.404
1889.787	7.514	2435.177	1415.996	2237.072	1254.171
1890.807	8.469	2440.119	1434.781	2241.339	1266.408
1891.827	8.911	2441.479	1442.038	2244.709	1282.772
1892.847	8.994	2441.457	1442.623	2244.622	1288.936
1893.867	8.928	2441.356	1443.030	2243.153	1288.701
1894.887	8.951	2438.960	1442.572	2242.263	1288.790
1895.907	8.871	2436.345	1439.102	2241.351	1288.240
1896.927	8.730	2436.031	1437.241	2239.526	1286.128
1897.947	8.736	2436.069	1437.702	2237.649	1284.473
1898.967	8.708	2435.258	1436.637	2236.643	1283.444
1899.987	8.699	2433.976	1435.753	2235.951	1282.640
1901.006	8.706	2432.542	1434.136	2235.176	1282.003
1902.026	8.764	2431.749	1433.706	2234.349	1280.995
1903.046	8.866	2431.176	1434.800	2233.774	1280.731
1904.066	8.917	2430.765	1434.874	2232.938	1281.530
1905.086	8.963	2430.411	1434.638	2231.339	1280.980
1906.106	8.997	2430.406	1434.871	2230.482	1280.354
1907.126	8.991	2430.767	1435.365	2230.374	1280.729
1908.146	8.958	2431.121	1435.311	2228.832	1280.603
1909.166	8.971	2431.374	1435.485	2225.949	1278.805
1910.186	8.992	2430.729	1435.598	2224.248	1277.317
1911.206	8.963	2429.091	1434.416	2223.006	1276.299
1912.226	8.941	2428.103	1433.408	2221.508	1275.524
1913.246	8.976	2427.310	1432.846	2220.871	1274.270
1914.266	9.088	2425.514	1432.082	2220.510	1273.759
1915.286	9.169	2424.386	1431.513	2219.315	1273.739
1916.306	9.241	2423.744	1432.742	2219.052	1273.635
1917.326	9.278	2422.616	1432.957	2218.848	1274.985
1918.346	9.265	2420.883	1432.039	2218.086	1275.694
1919.366	9.179	2418.452	1429.821	2217.173	1274.248
1920.386	9.100	2415.930	1427.710	2216.713	1273.656
1921.406	9.041	2413.719	1425.199	2215.782	1273.093
1922.426	8.976	2412.008	1422.967	2214.137	1271.345
1923.446	9.016	2409.924	1422.538	2212.631	1269.174
1924.466	9.029	2407.518	1421.078	2211.527	1268.828
1925.486	8.988	2406.428	1419.651	2210.890	1268.316
1926.506	9.007	2405.649	1419.615	2210.502	1267.823
1927.526	8.957	2404.700	1418.728	2210.160	1267.780
1928.546	8.868	2403.422	1417.886	2209.411	1267.415
1929.566	8.707	2401.787	1415.631	2208.032	1266.432
1930.586	8.502	2398.870	1412.355	2206.289	1264.328
1931.606	8.322	2395.174	1408.512	2204.432	1261.591
1932.626	8.115	2392.860	1404.282	2201.929	1258.671
1933.646	7.973	2391.677	1402.301	2200.218	1255.299
1934.666	7.850	2390.304	1400.616	2199.136	1253.627
1935.686	7.795	2388.107	1398.123	2198.121	1252.339
1936.706	7.777	2385.782	1395.212	2197.034	1250.415
1937.726	7.858	2384.763	1394.516	2196.285	1248.667
1938.746	7.968	2384.677	1395.531	2195.210	1248.179
1939.766	8.027	2383.501	1396.594	2193.702	1248.426
1940.786	8.030	2381.656	1395.591	2191.696	1248.158
1941.806	7.988	2381.242	1393.545	2189.761	1247.098
1942.826	8.024	2382.601	1394.421	2189.149	1245.409
1943.846	8.049	2383.939	1397.144	2189.351	1245.896
1944.866	7.641	2382.649	1397.458	2189.920	1247.542
1945.886	6.981	2379.019	1393.378	2189.678	1247.885
1946.906	6.179	2374.280	1379.373	2186.110	1244.836
1947.926	5.592	2371.592	1366.833	2180.358	1232.183
1948.946	5.507	2370.578	1364.894	2176.919	1220.397
1949.966	5.582	2367.987	1364.509	2175.585	1217.880
1950.986	5.539	2365.608	1362.158	2174.091	1216.972
1952.005	5.484	2364.824	1360.735	2172.655	1215.870
1953.025	5.543	2364.742	1361.430	2171.452	1215.273
1954.045	5.511	2363.975	1360.724	2170.731	1215.290
1955.065	5.530	2362.757	1359.973	2170.474	1214.306
1956.085	5.527	2362.288	1359.475	2170.392	1214.503
1957.105	5.547	2361.780	1359.236	2169.902	1214.175
1958.125	5.926	2361.332	1358.548	2168.441	1213.823
1959.145	6.580	2362.770	1359.447	2167.434	1212.815
1960.165	7.467	2367.027	1371.430	2168.312	1213.175
1961.185	8.248	2371.576	1386.289	2171.066	1222.801
1962.205	8.830	2374.030	1391.966	2173.551	1235.091
1963.225	9.873	2375.185	1394.351	2173.595	1239.540
1964.245	11.094	2379.599	1404.187	2173.503	1240.375
1965.265	12.369	2386.111	1427.739	2176.734	1248.841
1966.285	13.113	2389.095	1443.236	2181.499	1268.440
1967.305	13.120	2389.347	1444.013	2183.667	1281.489
1968.325	13.159	2387.896	1442.981	2183.892	1282.842
1969.345	13.202	2385.358	1441.058	2182.530	1282.252
1970.365	13.237	2383.595	1440.199	2180.134	1280.244
1971.385	13.273	2382.624	1440.113	2178.543	1279.323
1972.405	13.493	2381.767	1440.365	2177.385	1279.159
1973.425	13.860	2380.753	1440.101	2176.183	1278.409
1974.445	14.010	2381.364	1443.567	2176.608	1278.871
1975.465	14.096	2381.102	1450.526	2179.323	1283.949
1976.485	13.877	2377.245	1445.685	2180.726	1291.243
1977.505	13.513	2373.612	1437.182	2178.388	1287.784
1978.525	13.447	2371.797	1435.041	2175.953	1280.823
1979.545	13.490	2369.585	1434.061	2174.248	1279.282
1980.565	13.485	2367.315	1432.091	2172.740	1278.457
1981.585	13.453	2366.792	1431.235	2171.014	1276.995
1982.605	13.476	2366.976	1431.805	2169.422	1276.221
1983.625	13.514	2366.100	1431.333	2169.019	1275.387
1984.645	13.566	2364.851	1430.775	2168.547	1275.094
1985.665	13.589	2363.466	1429.717	2168.101	1274.715
1986.685	14.250	2362.669	1428.777	2168.137	1275.286
1987.705	16.316	2363.891	1429.430	2168.705	1275.585
1988.725	19.078	2374.623	1452.468	2170.961	1276.412
1989.745	22.014	2389.394	1505.512	2181.937	1297.069
1990.765	23.605	2395.412	1538.480	2196.589	1345.357
1991.785	23.425	2394.497	1540.727	2202.712	1376.200
1992.805	23.260	2388.497	1537.433	2202.491	1378.914
1993.825	23.414	2369.154	1523.491	2198.554	1376.699
1994.845	22.936	2344.996	1506.678	2177.506	1363.956
1995.865	21.376	2330.512	1500.220	2147.808	1344.429
1996.885	21.923	2313.498	1477.171	2130.211	1333.739
1997.905	23.418	2307.531	1433.788	2113.694	1311.596
1998.925	27.389	2325.782	1484.614	2108.050	1272.837
1999.945	32.211	2340.586	1573.437	2125.236	1317.702
2000.965	33.148	2341.101	1589.688	2139.184	1397.408
2001.984	33.176	2337.823	1588.100	2139.547	1411.616
2003.004	33.210	2334.328	1586.118	2135.645	1409.693
2004.024	33.285	2330.644	1584.212	2131.715	1407.447
2005.044	33.267	2326.455	1581.394	2127.667	1404.836
2006.064	32.778	2322.574	1578.133	2123.146	1401.984
2007.084	29.460	2318.357	1575.380	2118.555	1398.685
2008.104	24.868	2298.387	1555.071	2106.149	1391.277
2009.124	19.598	2265.908	1463.547	2081.127	1326.746
2010.144	15.358	2246.409	1380.048	2059.113	1243.047
2011.164	14.844	2240.831	1368.095	2050.581	1218.005
2012.184	14.783	2239.254	1366.607	2047.632	1215.337
2013.204	14.804	2237.293	1366.142	2044.218	1213.201
2014.224	14.779	2233.845	1363.796	2041.526	1211.377
2015.244	14.760	2230.192	1361.514	2039.808	1210.090
2016.264	14.691	2227.682	1359.602	2038.018	1209.424
2017.284	14.807	2224.778	1358.014	2034.249	1207.509
2018.304	16.345	2221.889	1354.029	2029.854	1202.618
2019.324	18.505	2228.265	1359.486	2034.463	1206.732
2020.344	21.313	2240.980	1404.748	2045.642	1246.377
2021.364	23.623	2246.784	1444.923	2050.147	1281.520
2022.384	23.340	2260.354	1448.236	2045.303	1280.434
2023.404	23.073	2288.764	1462.433	2037.862	1271.924
2024.424	23.724	2307.810	1483.967	2034.708	1271.211
2025.444	24.222	2310.995	1492.711	2035.029	1276.501
2026.464	24.601	2308.173	1493.154	2033.720	1277.555
2027.484	25.823	2280.088	1486.702	2016.031	1274.023
2028.504	26.174	2236.179	1458.340	1995.152	1259.060
2029.524	25.771	2220.573	1442.192	1996.661	1258.013
2030.544	26.246	2223.812	1452.495	2003.551	1272.241
2031.564	26.473	2223.271	1456.172	2002.116	1273.731
2032.584	26.500	2220.274	1454.562	1998.469	1270.950
2033.604	26.500	2217.448	1452.465	1995.010	1269.471
2034.624	26.533	2215.185	1451.260	1992.042	1267.528
2035.644	26.521	2212.773	1449.787	1990.169	1266.153
2036.664	26.503	2210.120	1448.256	1987.374	1264.588
2037.684	26.495	2206.645	1446.159	1984.023	1262.658
2038.704	26.468	2203.378	1443.349	1982.115	1260.830
2039.724	26.459	2201.380	1441.631	1980.560	1260.217
2040.744	26.459	2200.118	1440.750	1978.323	1259.280
2041.764	26.490	2198.377	1439.925	1975.767	1257.257
2042.784	26.475	2196.440	1438.389	1974.204	1256.100
2043.804	26.494	2194.917	1437.385	1973.329	1255.547
2044.824	26.528	2192.878	1436.264	1971.646	1254.947
2045.844	26.525	2190.670	1434.355	1968.771	1253.365
2046.864	26.535	2188.889	1432.962	1965.747	1251.353
2047.884	26.557	2187.023	1431.769	1963.647	1249.408
2048.904	26.513	2185.689	1430.254	1962.057	1248.807
2049.924	26.511	2184.752	1429.938	1959.998	1247.257
2050.944	26.523	2183.146	1429.303	1958.298	1245.754
2051.964	26.533	2180.944	1427.721	1957.696	1245.384
2052.983	26.535	2177.984	1425.450	1957.200	1245.121
2054.003	26.482	2176.309	1423.456	1956.095	1244.515
2055.023	26.488	2176.242	1423.692	1955.085	1243.511
2056.043	26.494	2175.770	1423.550	1953.325	1242.840
2057.063	26.539	2173.939	1422.715	1951.256	1241.314
2058.083	26.528	2171.222	1420.457	1949.086	1239.621
2059.103	26.494	2169.249	1418.760	1946.842	1238.146
2060.123	26.481	2168.462	1417.922	1944.602	1236.771
2061.143	26.483	2167.792	1417.487	1942.241	1235.153
2062.163	26.484	2166.976	1417.059	1940.537	1233.558
2063.183	26.534	2165.999	1416.859	1939.868	1233.072
2064.203	26.566	2165.265	1416.110	1939.891	1232.936
2065.223	26.591	2164.902	1415.709	1939.940	1232.867
2066.243	26.581	2164.394	1415.369	1939.338	1233.177
2067.263	26.551	2162.979	1414.402	1937.056	1232.338
2068.283	26.560	2161.248	1413.450	1934.423	1230.521
2069.303	26.565	2159.859	1412.481	1932.817	1228.344
2070.323	26.562	2158.544	1411.733	1932.608	1228.333
2071.343	26.522	2156.573	1410.342	1932.402	1228.035
2072.363	26.510	2154.145	1408.776	1931.427	1228.011
2073.383	26.489	2152.109	1406.715	1930.130	1227.003
2074.403	26.516	2150.642	1405.769	1928.638	1226.201
2075.423	26.523	2149.821	1405.075	1926.959	1224.743
2076.443	26.555	2148.402	1404.449	1924.641	1223.511
2077.463	26.544	2146.677	1402.836	1922.510	1221.922
2078.483	26.593	2145.503	1402.252	1919.854	1220.261
2079.503	26.465	2143.052	1400.980	1916.771	1218.383
2080.523	26.516	2137.053	1397.857	1912.327	1215.736
2081.543	28.980	2105.315	1388.462	1894.909	1211.514
2082.563	45.364	1668.350	1304.130	1550.690	1162.390
2083.583	62.948	793.047	746.306	785.790	674.576
2084.603	43.714	175.530	138.040	187.717	122.572
2085.623	-7.192	12.671	5.343	13.541	5.258
2086.643	321.682	0.334	-1.206	0.492	-1.264
2087.663	185.328	-1.107	-2.374	-1.000	-2.243
2088.683	160.522	-1.289	-2.405	-1.231	-2.134
2089.703	161.312	-1.325	-2.472	-1.312	-2.306
2090.723	153.279	-1.343	-2.400	-1.249	-2.240
2091.743	132.714	-1.496	-2.369	-1.258	-2.302
2092.763	152.644	-1.287	-2.295	-1.301	-2.091
2093.783	159.504	-1.228	-2.276	-1.130	-2.338
2094.803	148.765	-1.388	-2.421	-1.194	-2.262
2095.823	157.176	-1.358	-2.484	-1.293	-2.145
2096.843	157.179	-1.369	-2.503	-1.260	-2.166
2097.863	149.517	-1.410	-2.469	-1.308	-2.053
2098.883	143.607	-1.386	-2.345	-1.371	-2.153
2099.903	142.507	-1.401	-2.354	-1.365	-2.287
2100.923	164.960	-1.259	-2.402	-1.319	-2.222
2101.943	152.361	-1.280	-2.279	-1.264	-2.329
2102.962	172.098	-1.290	-2.558	-1.206	-2.207
2103.982	157.955	-1.326	-2.437	-1.238	-2.120
2105.002	139.906	-1.417	-2.345	-1.250	-2.204
2106.022	185.783	-1.225	-2.603	-1.231	-2.038
2107.042	158.917	-1.264	-2.335	-1.301	-2.309
2108.062	153.397	-1.436	-2.573	-1.252	-2.208
2109.082	138.432	-1.449	-2.377	-1.309	-2.135
2110.102	154.953	-1.333	-2.409	-1.315	-2.273
2111.122	158.693	-1.356	-2.503	-1.280	-2.210
2112.142	142.392	-1.402	-2.354	-1.259	-2.179
2113.162	155.151	-1.346	-2.434	-1.359	-2.191
2114.182	147.161	-1.367	-2.362	-1.393	-2.125
2115.202	148.970	-1.329	-2.321	-1.246	-2.142
2116.222	159.008	-1.300	-2.403	-1.157	-2.065
2117.242	169.835	-1.211	-2.374	-1.210	-2.117
2118.262	190.574	-1.147	-2.496	-1.201	-2.197
2119.282	195.901	-1.063	-2.372	-1.202	-2.099
2120.302	173.798	-1.165	-2.331	-1.117	-2.046
2121.322	166.116	-1.209	-2.322	-1.221	-2.116
2122.342	157.145	-1.239	-2.266	-1.110	-2.176
2123.362	169.200	-1.125	-2.197	-1.066	-2.073
2124.382	188.303	-1.086	-2.337	-1.119	-2.346
2125.402	205.402	-1.010	-2.353	-1.175	-2.109
2126.422	179.835	-1.087	-2.242	-1.187	-2.161
2127.442	185.207	-1.158	-2.453	-1.129	-2.010
2128.462	180.301	-1.106	-2.286	-1.071	-1.974
2129.482	166.711	-1.152	-2.219	-1.064	-2.299
2130.502	172.362	-1.177	-2.336	-1.094	-2.120
2131.522	172.500	-1.110	-2.205	-1.093	-2.014
2132.542	201.429	-1.059	-2.424	-0.933	-2.091
2133.562	209.306	-1.042	-2.469	-0.969	-2.072
2134.582	165.894	-1.128	-2.163	-1.004	-2.200
2135.602	179.178	-1.115	-2.292	-1.045	-2.041
2136.622	172.261	-1.121	-2.223	-0.906	-2.019
2137.642	185.754	-1.023	-2.172	-0.952	-2.101
2138.662	185.468	-1.070	-2.268	-1.077	-2.040
2139.682	182.905	-1.058	-2.216	-1.007	-1.942
2140.702	189.202	-1.046	-2.259	-0.961	-2.010
2141.722	195.319	-1.035	-2.301	-1.015	-2.232
2142.742	195.927	-1.035	-2.305	-0.983	-2.054
2143.762	153.976	-1.083	-1.944	-0.986	-1.894
2144.782	176.087	-1.133	-2.290	-1.017	-2.107
2145.802	188.854	-0.996	-2.146	-0.977	-2.171
2146.822	175.948	-1.084	-2.189	-0.935	-2.018
2147.842	164.713	-1.193	-2.272	-1.018	-1.990
2148.862	176.592	-1.015	-2.058	-1.162	-1.906
2149.882	205.342	-0.969	-2.255	-1.064	-1.893
2150.902	177.386	-1.062	-2.160	-0.876	-2.010
2151.922	168.983	-1.097	-2.136	-0.812	-2.100
2152.942	182.265	-1.089	-2.269	-0.915	-1.912
2153.961	190.694	-1.029	-2.234	-0.944	-1.935
2154.981	176.906	-1.017	-2.063	-0.909	-1.988
2156.001	199.233	-0.991	-2.240	-0.831	-2.123
2157.021	181.761	-1.101	-2.289	-0.836	-1.981
2158.041	149.950	-1.150	-2.015	-0.938	-1.943
2159.061	182.525	-1.070	-2.233	-0.974	-2.086
2160.081	190.153	-1.073	-2.325	-0.983	-2.030
2161.101	207.715	-0.936	-2.198	-1.068	-1.961
2162.121	203.315	-0.895	-2.061	-0.989	-2.000
2163.141	197.055	-0.979	-2.190	-0.883	-1.985
2164.161	200.689	-0.991	-2.254	-0.858	-2.149
2165.181	177.322	-1.004	-2.040	-0.743	-1.939
2166.201	209.472	-0.894	-2.114	-0.799	-2.079
2167.221	230.701	-0.876	-2.269	-0.871	-2.001
2168.241	201.066	-0.891	-2.029	-0.838	-2.038
2169.261	209.928	-0.916	-2.174	-0.832	-2.171
2170.281	194.795	-0.943	-2.087	-0.909	-1.943
2171.301	193.110	-0.952	-2.090	-0.841	-2.114
2172.321	225.402	-0.833	-2.110	-0.726	-1.972
2173.341	266.537	-0.728	-2.159	-0.878	-2.099
2174.361	230.259	-0.829	-2.142	-0.855	-1.943
2175.381	216.088	-0.901	-2.193	-0.852	-1.941
2176.401	174.824	-1.027	-2.058	-0.904	-1.911
2177.421	188.579	-1.001	-2.146	-0.767	-2.010
2178.441	197.431	-0.916	-2.049	-0.768	-2.041
2179.461	190.232	-0.979	-2.118	-0.875	-2.113
2180.481	177.056	-1.005	-2.037	-0.844	-1.869
2181.501	193.714	-0.994	-2.185	-0.845	-1.781
2182.521	188.601	-0.924	-1.981	-0.794	-2.064
2183.541	217.150	-0.906	-2.212	-0.700	-1.828
2184.561	228.880	-0.834	-2.139	-0.882	-1.906
2185.581	216.022	-0.841	-2.044	-0.862	-2.012
2186.601	245.178	-0.759	-2.077	-0.785	-1.888
2187.621	242.997	-0.786	-2.132	-0.859	-1.832
2188.641	204.134	-0.939	-2.162	-0.927	-1.916
2189.661	181.815	-1.006	-2.083	-0.895	-1.854
2190.681	207.215	-0.850	-1.983	-0.877	-1.815
2191.701	249.691	-0.761	-2.121	-0.844	-1.835
2192.721	244.013	-0.774	-2.122	-0.743	-2.100
2193.741	269.801	-0.769	-2.063	-0.753	-1.894
2194.761	237.621	-0.913	-2.026	-0.880	-2.010
2195.781	212.208	-0.997	-2.136	-0.818	-1.924
2196.801	188.691	-0.884	-2.026	-0.746	-1.949
2197.821	167.008	-0.765	-2.023	-0.678	-1.888
2198.841	253.340	-0.854	-2.049	-0.691	-1.840
2199.861	280.172	-0.761	-2.033	-0.754	-1.911
